ALV-7002/USB-25
Date :	"13/03/2025"
Time :	"10:20:47"
Samplename : 	""
SampMemo(0) : 	""
SampMemo(1) : 	""
SampMemo(2) : 	""
SampMemo(3) : 	""
SampMemo(4) : 	""
SampMemo(5) : 	""
SampMemo(6) : 	""
SampMemo(7) : 	""
SampMemo(8) : 	""
SampMemo(9) : 	""
Temperature [K] :	     298.16000
Viscosity [cp]  :	       0.89000
Refractive Index:	       1.33200
Wavelength [nm] :	     632.80000
Angle [°]       :	      90.00000
Duration [s]    :	        30
FloatDur [ms]   :	        29989
Stop TP [ms]   :	   1541382
Runs            :	        10
Mode            :	"A-CH0 "
MeanCR0 [kHz]   :	      97.46115
MeanCR1 [kHz]   :	       0.00000
MeanCR2 [kHz]   :	       0.00000
MeanCR3 [kHz]   :	       0.00000

"Correlation (Multi, Averaged)"
"Lag [ms]"	"Average"	" 1,  97.353"	" 2,  96.744"	" 3,  97.683"	" 4,  98.039"	" 5,  97.891"	" 6,  97.654"	" 7,  97.414"	" 8,  98.104"	" 9,  97.710"	"10,  97.461"	
  2.50000E-005	  1.13667E+002	  1.13886E+002	  1.14728E+002	  1.13763E+002	  1.13536E+002	  1.13329E+002	  1.13504E+002	  1.13679E+002	  1.13006E+002	  1.13520E+002	  1.13724E+002	
  5.00000E-005	  1.03812E+002	  1.04028E+002	  1.04838E+002	  1.03860E+002	  1.03713E+002	  1.03566E+002	  1.03516E+002	  1.03877E+002	  1.03088E+002	  1.03666E+002	  1.03971E+002	
  7.50000E-005	  7.83783E+001	  7.86895E+001	  7.92449E+001	  7.85377E+001	  7.86225E+001	  7.82101E+001	  7.80912E+001	  7.82830E+001	  7.76902E+001	  7.81857E+001	  7.82277E+001	
  1.00000E-004	  2.29599E+001	  2.31362E+001	  2.33309E+001	  2.31640E+001	  2.33584E+001	  2.29119E+001	  2.27640E+001	  2.27453E+001	  2.25854E+001	  2.28229E+001	  2.27802E+001	
  1.25000E-004	  7.47245E+000	  7.53960E+000	  7.59043E+000	  7.53516E+000	  7.63578E+000	  7.47301E+000	  7.38289E+000	  7.41914E+000	  7.33041E+000	  7.43046E+000	  7.38761E+000	
  1.50000E-004	  2.54276E+000	  2.57741E+000	  2.60981E+000	  2.55916E+000	  2.57990E+000	  2.53777E+000	  2.50930E+000	  2.48831E+000	  2.51638E+000	  2.56280E+000	  2.48679E+000	
  1.75000E-004	  1.90172E+000	  1.94489E+000	  1.95383E+000	  1.92258E+000	  1.90283E+000	  1.89597E+000	  1.89421E+000	  1.86115E+000	  1.84816E+000	  1.92183E+000	  1.87174E+000	
  2.00000E-004	  1.65362E+000	  1.66924E+000	  1.71156E+000	  1.65979E+000	  1.65063E+000	  1.66227E+000	  1.65349E+000	  1.63232E+000	  1.59374E+000	  1.63780E+000	  1.66532E+000	
  2.25000E-004	  1.42133E+000	  1.43128E+000	  1.43523E+000	  1.44606E+000	  1.43589E+000	  1.40825E+000	  1.42095E+000	  1.39465E+000	  1.40994E+000	  1.45087E+000	  1.38013E+000	
  2.50000E-004	  1.28985E+000	  1.33052E+000	  1.33063E+000	  1.29999E+000	  1.29622E+000	  1.25612E+000	  1.29446E+000	  1.28768E+000	  1.24652E+000	  1.29049E+000	  1.26583E+000	
  2.75000E-004	  1.25083E+000	  1.30090E+000	  1.26992E+000	  1.27888E+000	  1.26099E+000	  1.22856E+000	  1.24150E+000	  1.22907E+000	  1.23744E+000	  1.22301E+000	  1.23802E+000	
  3.00000E-004	  1.29346E+000	  1.41031E+000	  1.34089E+000	  1.33452E+000	  1.30652E+000	  1.25292E+000	  1.27770E+000	  1.26154E+000	  1.25349E+000	  1.24718E+000	  1.24954E+000	
  3.25000E-004	  1.40997E+000	  1.59157E+000	  1.46416E+000	  1.42468E+000	  1.39328E+000	  1.36858E+000	  1.39165E+000	  1.39408E+000	  1.35412E+000	  1.36132E+000	  1.35626E+000	
  3.50000E-004	  1.54068E+000	  1.73486E+000	  1.61195E+000	  1.56376E+000	  1.55942E+000	  1.49831E+000	  1.49194E+000	  1.51566E+000	  1.49312E+000	  1.46876E+000	  1.46902E+000	
  3.75000E-004	  1.69532E+000	  1.92051E+000	  1.80861E+000	  1.69152E+000	  1.70940E+000	  1.67021E+000	  1.62969E+000	  1.66648E+000	  1.65096E+000	  1.59156E+000	  1.61421E+000	
  4.00000E-004	  1.70102E+000	  1.89415E+000	  1.79657E+000	  1.71508E+000	  1.71678E+000	  1.66909E+000	  1.63694E+000	  1.68208E+000	  1.63198E+000	  1.61552E+000	  1.65198E+000	
  4.50000E-004	  1.48194E+000	  1.57556E+000	  1.52993E+000	  1.48870E+000	  1.47342E+000	  1.47520E+000	  1.46348E+000	  1.47062E+000	  1.44225E+000	  1.43013E+000	  1.47007E+000	
  5.00000E-004	  1.12951E+000	  1.18688E+000	  1.14095E+000	  1.12694E+000	  1.11915E+000	  1.13252E+000	  1.14572E+000	  1.11635E+000	  1.09014E+000	  1.10426E+000	  1.13222E+000	
  5.50000E-004	  8.69914E-001	  8.99461E-001	  8.69035E-001	  8.66104E-001	  8.63337E-001	  8.54906E-001	  8.97192E-001	  8.65172E-001	  8.53024E-001	  8.67739E-001	  8.63171E-001	
  6.00000E-004	  7.77346E-001	  7.98766E-001	  7.86948E-001	  7.64831E-001	  7.65160E-001	  7.65129E-001	  7.88807E-001	  7.85829E-001	  7.62448E-001	  7.69245E-001	  7.86291E-001	
  6.50000E-004	  7.21447E-001	  7.21881E-001	  7.32936E-001	  7.12203E-001	  7.09039E-001	  7.08757E-001	  7.10424E-001	  7.59053E-001	  7.01391E-001	  7.28032E-001	  7.30755E-001	
  7.00000E-004	  6.61748E-001	  6.80214E-001	  6.81134E-001	  6.64537E-001	  6.43797E-001	  6.53360E-001	  6.42111E-001	  6.89126E-001	  6.29865E-001	  6.56991E-001	  6.76342E-001	
  7.50000E-004	  6.03476E-001	  6.42586E-001	  6.06885E-001	  5.86398E-001	  5.93873E-001	  6.19885E-001	  5.67883E-001	  6.26087E-001	  5.72157E-001	  5.93564E-001	  6.25439E-001	
  8.00000E-004	  5.56840E-001	  5.84905E-001	  5.57719E-001	  5.55401E-001	  5.64316E-001	  5.62226E-001	  5.41896E-001	  5.51944E-001	  5.11273E-001	  5.51512E-001	  5.87210E-001	
  9.00000E-004	  4.86687E-001	  4.94378E-001	  5.05560E-001	  4.92813E-001	  4.94165E-001	  4.75059E-001	  4.86506E-001	  4.80612E-001	  4.62880E-001	  4.79983E-001	  4.94918E-001	
  1.00000E-003	  4.40847E-001	  4.53810E-001	  4.69789E-001	  4.49446E-001	  4.58132E-001	  4.16564E-001	  4.34462E-001	  4.42768E-001	  4.36119E-001	  4.42402E-001	  4.04979E-001	
  1.10000E-003	  3.99557E-001	  4.10549E-001	  4.23438E-001	  4.03352E-001	  4.05771E-001	  3.72302E-001	  3.79389E-001	  4.06012E-001	  3.99799E-001	  4.09326E-001	  3.85636E-001	
  1.20000E-003	  3.55458E-001	  3.76287E-001	  3.47657E-001	  3.45028E-001	  3.54420E-001	  3.66560E-001	  3.42591E-001	  3.45609E-001	  3.55837E-001	  3.58158E-001	  3.62431E-001	
  1.30000E-003	  3.30096E-001	  3.63106E-001	  3.20758E-001	  3.39996E-001	  3.28030E-001	  3.14086E-001	  3.30971E-001	  3.31342E-001	  3.09886E-001	  3.42930E-001	  3.19849E-001	
  1.40000E-003	  3.13919E-001	  3.23990E-001	  3.02517E-001	  3.22663E-001	  3.12677E-001	  3.13251E-001	  3.17731E-001	  3.30499E-001	  2.97291E-001	  3.24769E-001	  2.93801E-001	
  1.50000E-003	  3.02812E-001	  3.22325E-001	  2.91722E-001	  2.86948E-001	  3.08012E-001	  3.04621E-001	  3.12696E-001	  3.13843E-001	  2.97431E-001	  2.97700E-001	  2.92818E-001	
  1.60000E-003	  2.93163E-001	  3.02448E-001	  2.97083E-001	  2.88625E-001	  3.04670E-001	  2.93626E-001	  2.84438E-001	  2.94921E-001	  2.96157E-001	  2.74596E-001	  2.95065E-001	
  1.80000E-003	  2.96671E-001	  3.05920E-001	  2.95819E-001	  2.95457E-001	  3.12138E-001	  2.79428E-001	  2.82747E-001	  2.94165E-001	  3.05176E-001	  3.10291E-001	  2.85569E-001	
  2.00000E-003	  3.12737E-001	  3.12511E-001	  3.23626E-001	  2.98445E-001	  3.44793E-001	  3.15252E-001	  3.09157E-001	  3.12842E-001	  3.08456E-001	  2.99324E-001	  3.02963E-001	
  2.20000E-003	  3.35545E-001	  3.55914E-001	  3.35526E-001	  3.33583E-001	  3.41625E-001	  3.35539E-001	  3.29052E-001	  3.30815E-001	  3.37938E-001	  3.30007E-001	  3.25448E-001	
  2.40000E-003	  3.43565E-001	  3.43796E-001	  3.51398E-001	  3.39227E-001	  3.39310E-001	  3.54886E-001	  3.30126E-001	  3.50440E-001	  3.50708E-001	  3.41009E-001	  3.34751E-001	
  2.60000E-003	  3.45840E-001	  3.58748E-001	  3.59076E-001	  3.45028E-001	  3.53253E-001	  3.40585E-001	  3.31957E-001	  3.44396E-001	  3.44916E-001	  3.39333E-001	  3.41105E-001	
  2.80000E-003	  3.26456E-001	  3.50794E-001	  3.38287E-001	  3.43298E-001	  3.28553E-001	  3.35487E-001	  3.07255E-001	  3.18639E-001	  3.28588E-001	  2.99010E-001	  3.14653E-001	
  3.00000E-003	  3.15399E-001	  3.39226E-001	  3.26387E-001	  3.19343E-001	  3.13513E-001	  3.15217E-001	  3.13224E-001	  3.00174E-001	  3.17998E-001	  2.95797E-001	  3.13109E-001	
  3.20000E-003	  2.92444E-001	  2.99818E-001	  3.07105E-001	  2.80378E-001	  3.06393E-001	  2.96497E-001	  2.88971E-001	  2.75550E-001	  2.90192E-001	  2.89597E-001	  2.89939E-001	
  3.60000E-003	  2.42362E-001	  2.50073E-001	  2.55436E-001	  2.40915E-001	  2.50847E-001	  2.45901E-001	  2.43142E-001	  2.32163E-001	  2.37534E-001	  2.31933E-001	  2.35675E-001	
  4.00000E-003	  2.09474E-001	  2.15687E-001	  2.15880E-001	  2.16532E-001	  2.12716E-001	  2.12331E-001	  2.10086E-001	  1.97955E-001	  2.07415E-001	  1.97400E-001	  2.08741E-001	
  4.40000E-003	  1.73289E-001	  1.80645E-001	  1.69430E-001	  1.80302E-001	  1.78633E-001	  1.72018E-001	  1.66616E-001	  1.63545E-001	  1.73432E-001	  1.71466E-001	  1.76804E-001	
  4.80000E-003	  1.52245E-001	  1.61061E-001	  1.50583E-001	  1.50310E-001	  1.62775E-001	  1.56759E-001	  1.50911E-001	  1.45001E-001	  1.43138E-001	  1.51026E-001	  1.50887E-001	
  5.20000E-003	  1.31041E-001	  1.16710E-001	  1.22865E-001	  1.28530E-001	  1.45768E-001	  1.27077E-001	  1.35672E-001	  1.34327E-001	  1.30098E-001	  1.33327E-001	  1.36038E-001	
  5.60000E-003	  1.25309E-001	  1.20076E-001	  1.25715E-001	  1.26957E-001	  1.31155E-001	  1.35941E-001	  1.25637E-001	  1.20728E-001	  1.21777E-001	  1.28795E-001	  1.16309E-001	
  6.00000E-003	  1.13241E-001	  1.09872E-001	  1.11937E-001	  1.18815E-001	  1.09049E-001	  1.12227E-001	  1.14536E-001	  1.12769E-001	  1.03677E-001	  1.18177E-001	  1.21346E-001	
  6.40000E-003	  1.07173E-001	  1.11666E-001	  9.68680E-002	  1.06802E-001	  1.05245E-001	  1.15659E-001	  1.01485E-001	  1.10191E-001	  9.98800E-002	  1.17644E-001	  1.06291E-001	
  7.20000E-003	  9.77240E-002	  9.48583E-002	  9.94588E-002	  9.13782E-002	  1.04536E-001	  1.06225E-001	  9.39671E-002	  9.74812E-002	  9.16022E-002	  9.77666E-002	  9.99672E-002	
  8.00000E-003	  8.93738E-002	  1.00894E-001	  9.68713E-002	  9.19811E-002	  9.19677E-002	  9.71864E-002	  8.89808E-002	  7.49089E-002	  8.86147E-002	  8.35689E-002	  7.87637E-002	
  8.80000E-003	  8.69694E-002	  8.69165E-002	  8.81736E-002	  9.20029E-002	  9.39608E-002	  8.94744E-002	  7.92357E-002	  8.72997E-002	  9.30327E-002	  7.69940E-002	  8.26033E-002	
  9.60000E-003	  8.59435E-002	  9.22312E-002	  9.50944E-002	  8.96572E-002	  7.36118E-002	  9.41329E-002	  7.91036E-002	  8.44447E-002	  7.82770E-002	  8.09582E-002	  9.19238E-002	
  1.04000E-002	  8.26524E-002	  9.25014E-002	  8.23708E-002	  8.96615E-002	  7.27153E-002	  8.30282E-002	  7.82849E-002	  8.53100E-002	  8.02788E-002	  8.24818E-002	  7.98915E-002	
  1.12000E-002	  8.23534E-002	  8.52956E-002	  7.82513E-002	  8.03179E-002	  8.15930E-002	  7.85042E-002	  8.66304E-002	  9.42177E-002	  8.03486E-002	  7.91463E-002	  7.92288E-002	
  1.20000E-002	  8.02227E-002	  7.98126E-002	  7.95740E-002	  7.82135E-002	  7.69714E-002	  8.25016E-002	  6.93937E-002	  8.08521E-002	  8.12863E-002	  8.73716E-002	  8.62499E-002	
  1.28000E-002	  8.17321E-002	  8.23909E-002	  8.04304E-002	  8.26647E-002	  7.68139E-002	  9.00789E-002	  7.62069E-002	  7.96727E-002	  8.05829E-002	  8.54160E-002	  8.30640E-002	
  1.44000E-002	  7.80254E-002	  7.94792E-002	  8.53961E-002	  7.05363E-002	  8.22863E-002	  7.65406E-002	  7.39709E-002	  7.79091E-002	  8.07792E-002	  7.76426E-002	  7.57139E-002	
  1.60000E-002	  7.92072E-002	  7.81019E-002	  8.61487E-002	  8.13957E-002	  7.84611E-002	  7.99917E-002	  7.91259E-002	  8.04519E-002	  7.19236E-002	  7.68415E-002	  7.96303E-002	
  1.76000E-002	  7.63879E-002	  8.51837E-002	  7.68231E-002	  7.26309E-002	  7.66115E-002	  7.38239E-002	  7.62737E-002	  7.45113E-002	  7.22768E-002	  8.09454E-002	  7.47989E-002	
  1.92000E-002	  7.62018E-002	  7.66979E-002	  7.60745E-002	  7.47054E-002	  7.19225E-002	  8.41130E-002	  7.26556E-002	  7.65296E-002	  7.71724E-002	  7.77823E-002	  7.43645E-002	
  2.08000E-002	  7.87863E-002	  7.81487E-002	  7.46684E-002	  8.04103E-002	  6.85389E-002	  8.62552E-002	  7.80387E-002	  7.91760E-002	  8.21770E-002	  8.20062E-002	  7.84433E-002	
  2.24000E-002	  7.35660E-002	  7.18996E-002	  7.21610E-002	  7.35740E-002	  7.62786E-002	  8.00678E-002	  7.20878E-002	  7.02265E-002	  7.29383E-002	  7.34427E-002	  7.29833E-002	
  2.40000E-002	  7.53862E-002	  8.09013E-002	  6.81440E-002	  7.36417E-002	  7.81129E-002	  8.04241E-002	  6.89803E-002	  8.14600E-002	  7.15514E-002	  7.35693E-002	  7.70775E-002	
  2.56000E-002	  7.24587E-002	  7.26080E-002	  6.81030E-002	  7.25342E-002	  7.49860E-002	  7.51942E-002	  6.96913E-002	  7.38182E-002	  6.78772E-002	  7.32453E-002	  7.65291E-002	
  2.88000E-002	  7.18856E-002	  7.24973E-002	  7.50794E-002	  6.57700E-002	  7.46705E-002	  6.98071E-002	  7.21496E-002	  7.17739E-002	  7.16977E-002	  6.90901E-002	  7.63203E-002	
  3.20000E-002	  7.03030E-002	  6.83581E-002	  7.07550E-002	  7.39135E-002	  7.03683E-002	  7.23408E-002	  7.27163E-002	  7.03943E-002	  6.68687E-002	  7.21287E-002	  6.51865E-002	
  3.52000E-002	  7.02612E-002	  6.23614E-002	  6.49944E-002	  7.33674E-002	  7.69077E-002	  7.08511E-002	  6.74289E-002	  7.38918E-002	  7.06761E-002	  6.78910E-002	  7.42426E-002	
  3.84000E-002	  7.11861E-002	  7.49461E-002	  7.07528E-002	  6.65639E-002	  7.47154E-002	  7.25996E-002	  6.99675E-002	  7.21194E-002	  6.81967E-002	  7.07684E-002	  7.12316E-002	
  4.16000E-002	  6.95665E-002	  7.27471E-002	  7.31054E-002	  7.00367E-002	  6.83379E-002	  6.69099E-002	  6.96660E-002	  7.20345E-002	  6.65496E-002	  6.94016E-002	  6.68763E-002	
  4.48000E-002	  6.76122E-002	  6.87877E-002	  6.40284E-002	  6.64423E-002	  6.32451E-002	  7.07583E-002	  7.11130E-002	  6.74994E-002	  6.61930E-002	  7.02784E-002	  6.77759E-002	
  4.80000E-002	  6.50489E-002	  6.29995E-002	  6.73563E-002	  6.54289E-002	  6.54667E-002	  6.45850E-002	  6.20490E-002	  6.72699E-002	  6.45441E-002	  6.51496E-002	  6.56403E-002	
  5.12000E-002	  6.53819E-002	  7.04991E-002	  6.46140E-002	  6.95634E-002	  6.45179E-002	  6.41950E-002	  6.22390E-002	  6.74730E-002	  5.84670E-002	  6.60462E-002	  6.62040E-002	
  5.76000E-002	  6.54591E-002	  6.84131E-002	  6.47317E-002	  6.47082E-002	  6.68184E-002	  6.58823E-002	  6.41112E-002	  6.35836E-002	  6.74147E-002	  6.26128E-002	  6.63150E-002	
  6.40000E-002	  6.37273E-002	  6.43972E-002	  6.31969E-002	  6.61721E-002	  6.74383E-002	  6.12107E-002	  5.68920E-002	  6.49480E-002	  6.65381E-002	  6.21877E-002	  6.42921E-002	
  7.04000E-002	  6.24549E-002	  6.19794E-002	  6.02423E-002	  6.28473E-002	  6.49034E-002	  6.47905E-002	  5.87187E-002	  6.34271E-002	  6.46949E-002	  6.01297E-002	  6.28154E-002	
  7.68000E-002	  6.12620E-002	  6.24514E-002	  5.83324E-002	  6.02171E-002	  6.19218E-002	  6.35104E-002	  5.67528E-002	  6.26156E-002	  6.30956E-002	  5.90219E-002	  6.47009E-002	
  8.32000E-002	  5.89151E-002	  5.76114E-002	  5.87018E-002	  5.89743E-002	  5.99874E-002	  5.80438E-002	  5.62978E-002	  6.50040E-002	  5.87799E-002	  5.70584E-002	  5.86926E-002	
  8.96000E-002	  5.91348E-002	  5.85594E-002	  6.02004E-002	  5.79434E-002	  6.03539E-002	  6.35616E-002	  5.45278E-002	  6.06061E-002	  5.91980E-002	  6.07823E-002	  5.56154E-002	
  9.60000E-002	  5.59358E-002	  5.58505E-002	  5.56226E-002	  5.86147E-002	  5.66662E-002	  5.73488E-002	  5.42285E-002	  5.56331E-002	  5.52287E-002	  5.33159E-002	  5.68495E-002	
  1.02400E-001	  5.64539E-002	  5.69033E-002	  5.57805E-002	  5.73589E-002	  5.73942E-002	  5.73406E-002	  5.38290E-002	  5.51971E-002	  5.71828E-002	  5.44843E-002	  5.90682E-002	
  1.15200E-001	  5.40967E-002	  5.34931E-002	  5.32936E-002	  5.54456E-002	  5.55153E-002	  5.75423E-002	  5.34733E-002	  5.53135E-002	  5.06951E-002	  5.33644E-002	  5.28307E-002	
  1.28000E-001	  5.20121E-002	  5.09869E-002	  5.12595E-002	  5.14363E-002	  5.47249E-002	  5.21816E-002	  5.01164E-002	  5.04663E-002	  5.20019E-002	  5.27395E-002	  5.42080E-002	
  1.40800E-001	  4.99864E-002	  4.82347E-002	  5.05561E-002	  5.04072E-002	  4.98181E-002	  4.99005E-002	  4.92097E-002	  5.20303E-002	  5.04891E-002	  5.09062E-002	  4.83120E-002	
  1.53600E-001	  4.83918E-002	  4.60666E-002	  4.78344E-002	  4.95715E-002	  5.02500E-002	  5.13011E-002	  4.78743E-002	  5.05985E-002	  4.46472E-002	  4.69543E-002	  4.88205E-002	
  1.66400E-001	  4.60349E-002	  4.39942E-002	  4.49487E-002	  4.74844E-002	  4.59825E-002	  4.59574E-002	  4.61102E-002	  4.67201E-002	  4.64797E-002	  4.77306E-002	  4.49408E-002	
  1.79200E-001	  4.53057E-002	  4.53158E-002	  4.38173E-002	  4.46874E-002	  4.39445E-002	  4.38725E-002	  4.47023E-002	  4.35622E-002	  4.75978E-002	  4.71213E-002	  4.84357E-002	
  1.92000E-001	  4.31355E-002	  4.49556E-002	  4.07351E-002	  4.41294E-002	  4.22518E-002	  4.54106E-002	  3.99125E-002	  4.30562E-002	  4.33050E-002	  4.25996E-002	  4.49989E-002	
  2.04800E-001	  4.15044E-002	  4.15310E-002	  3.93532E-002	  4.21388E-002	  4.19780E-002	  4.42042E-002	  3.82825E-002	  4.23563E-002	  4.23352E-002	  4.10972E-002	  4.17676E-002	
  2.30400E-001	  3.78261E-002	  3.84561E-002	  3.63059E-002	  3.80115E-002	  3.87658E-002	  3.58010E-002	  3.88516E-002	  3.77297E-002	  3.89045E-002	  3.79083E-002	  3.75264E-002	
  2.56000E-001	  3.58549E-002	  3.48322E-002	  3.49051E-002	  3.70863E-002	  3.83024E-002	  3.59822E-002	  3.44470E-002	  3.53366E-002	  3.54657E-002	  3.64916E-002	  3.57001E-002	
  2.81600E-001	  3.27761E-002	  3.21821E-002	  3.32643E-002	  3.21998E-002	  3.11277E-002	  3.39005E-002	  3.30975E-002	  3.28817E-002	  3.33778E-002	  3.37125E-002	  3.20176E-002	
  3.07200E-001	  3.12314E-002	  3.08945E-002	  3.08320E-002	  3.06526E-002	  3.11501E-002	  3.12704E-002	  3.18609E-002	  3.07416E-002	  3.22102E-002	  3.21284E-002	  3.05732E-002	
  3.32800E-001	  2.88200E-002	  2.98944E-002	  2.78253E-002	  2.79053E-002	  2.92453E-002	  3.05373E-002	  2.70683E-002	  2.84268E-002	  3.00856E-002	  2.84192E-002	  2.87920E-002	
  3.58400E-001	  2.73893E-002	  2.83681E-002	  2.65845E-002	  2.77987E-002	  2.75944E-002	  2.88681E-002	  2.68435E-002	  2.55128E-002	  2.79248E-002	  2.51155E-002	  2.92827E-002	
  3.84000E-001	  2.51258E-002	  2.39872E-002	  2.51664E-002	  2.60182E-002	  2.24838E-002	  2.80859E-002	  2.51650E-002	  2.45544E-002	  2.63551E-002	  2.42334E-002	  2.52084E-002	
  4.09600E-001	  2.34860E-002	  2.29773E-002	  2.26225E-002	  2.46161E-002	  2.19555E-002	  2.53833E-002	  2.28954E-002	  2.36185E-002	  2.38012E-002	  2.30769E-002	  2.39129E-002	
  4.60800E-001	  2.00136E-002	  2.00687E-002	  1.83065E-002	  2.07165E-002	  2.02688E-002	  2.10263E-002	  1.90967E-002	  1.89136E-002	  2.11056E-002	  1.87452E-002	  2.18881E-002	
  5.12000E-001	  1.75403E-002	  1.85584E-002	  1.75360E-002	  1.88300E-002	  1.71961E-002	  1.84002E-002	  1.69082E-002	  1.63978E-002	  1.79028E-002	  1.69684E-002	  1.67048E-002	
  5.63200E-001	  1.52032E-002	  1.54009E-002	  1.47367E-002	  1.56921E-002	  1.48790E-002	  1.69195E-002	  1.52592E-002	  1.53264E-002	  1.39283E-002	  1.45213E-002	  1.53690E-002	
  6.14400E-001	  1.28948E-002	  1.22907E-002	  1.19115E-002	  1.30763E-002	  1.31921E-002	  1.51304E-002	  1.19145E-002	  1.31131E-002	  1.11886E-002	  1.38310E-002	  1.33001E-002	
  6.65600E-001	  1.10243E-002	  1.00748E-002	  1.02176E-002	  1.08070E-002	  1.26149E-002	  1.35613E-002	  9.63249E-003	  1.17347E-002	  1.06002E-002	  1.04625E-002	  1.05371E-002	
  7.16800E-001	  9.84317E-003	  9.46110E-003	  9.45020E-003	  9.36377E-003	  9.61890E-003	  1.11044E-002	  8.81830E-003	  1.04635E-002	  9.17389E-003	  1.08346E-002	  1.01431E-002	
  7.68000E-001	  8.81918E-003	  9.03482E-003	  7.59137E-003	  1.04105E-002	  7.82799E-003	  9.93458E-003	  8.97588E-003	  7.98760E-003	  8.29256E-003	  7.67598E-003	  1.04604E-002	
  8.19200E-001	  7.55435E-003	  7.73557E-003	  6.10770E-003	  9.14102E-003	  6.67948E-003	  8.71455E-003	  7.05538E-003	  7.49824E-003	  7.51216E-003	  7.49373E-003	  7.60570E-003	
  9.21600E-001	  5.45959E-003	  4.47048E-003	  4.26587E-003	  6.55138E-003	  5.11579E-003	  5.88759E-003	  4.29508E-003	  6.26997E-003	  5.03752E-003	  6.91851E-003	  5.78368E-003	
  1.02400E+000	  4.71778E-003	  4.55629E-003	  4.56463E-003	  4.35749E-003	  5.05367E-003	  4.69828E-003	  4.17855E-003	  4.77615E-003	  4.04817E-003	  5.62550E-003	  5.31908E-003	
  1.12640E+000	  3.22164E-003	  3.17341E-003	  3.02545E-003	  3.56891E-003	  2.95085E-003	  3.56646E-003	  2.94449E-003	  3.24048E-003	  3.43751E-003	  3.28952E-003	  3.01928E-003	
  1.22880E+000	  2.77278E-003	  2.87074E-003	  2.25403E-003	  3.14866E-003	  3.22191E-003	  2.23498E-003	  2.56208E-003	  3.32522E-003	  2.66488E-003	  2.83244E-003	  2.61281E-003	
  1.33120E+000	  2.14153E-003	  2.70638E-003	  1.78768E-003	  2.59445E-003	  1.85715E-003	  3.03553E-003	  1.99167E-003	  1.96883E-003	  1.42072E-003	  2.42658E-003	  1.62631E-003	
  1.43360E+000	  1.50633E-003	  2.08602E-003	  1.20978E-003	  1.53973E-003	  1.59822E-003	  1.26996E-003	  1.84475E-003	  2.17354E-003	  8.30292E-004	  1.42782E-003	  1.08314E-003	
  1.53600E+000	  1.47970E-003	  2.10899E-003	  2.50213E-003	  1.32894E-003	  1.77435E-003	  1.64873E-003	  1.71768E-003	  7.37562E-004	 -6.66631E-005	  1.90537E-003	  1.13991E-003	
  1.63840E+000	  1.08725E-003	  1.55469E-003	  1.42306E-003	  4.51214E-004	  1.02808E-003	  1.00425E-003	  1.56921E-003	  1.36484E-003	  6.10860E-004	  1.15049E-003	  7.15837E-004	
  1.84320E+000	  7.75030E-004	  1.07315E-003	  5.72194E-004	  7.23362E-004	  4.85489E-004	  1.75221E-003	  1.31762E-003	  8.02004E-004	  1.80589E-004	  2.56001E-004	  5.87676E-004	
  2.04800E+000	  4.91906E-004	  1.38845E-003	  9.72621E-004	  2.04456E-004	  6.64325E-004	  7.37109E-004	 -3.31692E-004	  5.51580E-004	 -4.73055E-004	  1.77531E-004	  1.02773E-003	
  2.25280E+000	  2.61802E-004	  7.06956E-004	  6.95689E-006	  4.42835E-004	  7.37486E-004	  1.36948E-004	  4.81720E-004	  5.09782E-004	 -9.22866E-004	  2.57490E-004	  2.60716E-004	
  2.45760E+000	 -8.87470E-005	 -5.08371E-004	 -1.22190E-004	  8.33306E-005	  1.98482E-004	  6.22762E-004	  2.07836E-004	 -7.58987E-004	 -1.05316E-003	 -1.54704E-004	  5.97532E-004	
  2.66240E+000	  1.43269E-004	 -2.47002E-004	  7.13029E-004	  3.68536E-004	  6.91300E-004	 -5.36326E-005	  5.79026E-004	 -4.15701E-004	 -7.06766E-004	  1.00352E-004	  4.03554E-004	
  2.86720E+000	 -4.58071E-005	 -3.87282E-004	  7.62893E-004	 -1.53512E-003	  3.85322E-004	  5.31772E-004	 -5.83787E-004	  1.34140E-004	  1.23778E-004	 -6.15201E-004	  7.25413E-004	
  3.07200E+000	  1.01061E-004	 -4.34797E-004	  4.46448E-004	  8.88107E-005	  3.03906E-004	 -1.63471E-004	 -2.13199E-004	  4.13584E-004	 -4.73832E-004	  1.79886E-004	  8.63280E-004	
  3.27680E+000	  1.02093E-004	  8.25933E-005	  5.95997E-004	  1.53791E-005	 -1.66934E-004	 -7.59194E-005	  2.01965E-005	  3.49168E-004	 -5.52514E-004	 -3.03792E-005	  7.83344E-004	
  3.68640E+000	  1.49638E-004	 -2.17138E-005	  1.07600E-003	 -5.72262E-004	  8.73014E-006	  3.43803E-005	  3.45852E-004	  1.14576E-004	  5.72389E-005	 -6.43064E-005	  5.17881E-004	
  4.09600E+000	  2.15973E-004	  2.74515E-004	  1.13680E-003	  1.30385E-004	  1.73227E-004	 -5.38697E-004	  3.94588E-004	 -9.24887E-004	  5.92714E-004	 -2.91177E-004	  1.21226E-003	
  4.50560E+000	  5.45470E-005	  3.48184E-005	  7.16482E-005	 -7.58349E-005	 -3.04921E-004	  1.60884E-004	  1.93064E-004	 -3.50445E-004	  1.02850E-003	 -5.18320E-005	 -1.60410E-004	
  4.91520E+000	  3.61879E-005	 -7.63697E-005	 -2.96039E-004	 -2.81458E-004	 -3.02652E-004	  1.31887E-004	  3.30798E-004	  1.34122E-004	  5.48302E-004	 -9.26284E-005	  2.65918E-004	
  5.32480E+000	 -1.25274E-004	  5.52412E-004	 -3.39881E-004	 -8.05484E-004	 -2.68664E-004	 -7.34938E-005	 -1.07855E-004	 -1.79074E-005	 -1.84729E-004	 -2.11472E-004	  2.04335E-004	
  5.73440E+000	 -1.52956E-004	 -2.26963E-004	  9.80185E-005	 -4.20867E-004	 -4.40781E-005	 -2.95898E-004	 -5.44245E-004	  3.43985E-004	 -3.54554E-004	  1.09779E-004	 -1.94740E-004	
  6.14400E+000	 -4.42778E-006	  4.06587E-004	 -5.50492E-004	  4.97869E-004	 -6.66429E-004	 -1.69530E-004	  1.67236E-005	 -2.19798E-004	  1.03852E-004	  2.53636E-004	  2.83303E-004	
  6.55360E+000	  8.39017E-005	  3.70918E-004	 -4.62552E-004	  4.32913E-004	  5.43888E-005	 -1.59541E-004	 -1.10557E-004	  2.86419E-004	 -1.75264E-004	  2.16295E-004	  3.85996E-004	
  7.37280E+000	  1.90753E-004	  5.31046E-004	  5.32985E-004	  4.97840E-004	 -2.61667E-004	  3.72457E-004	 -2.39526E-004	  1.42631E-005	  2.26720E-004	  1.81618E-005	  2.15251E-004	
  8.19200E+000	 -1.07917E-004	 -1.72044E-004	  3.18408E-005	  5.34923E-004	 -3.23495E-004	  2.65707E-004	 -4.69517E-004	  5.58625E-005	 -2.57775E-004	 -5.37033E-004	 -2.07639E-004	
  9.01120E+000	 -6.66069E-005	  1.17900E-006	 -6.28276E-004	 -1.70472E-005	 -2.39510E-004	 -1.07002E-004	  5.14193E-004	  5.11433E-005	 -3.03138E-004	 -6.48286E-004	  7.10676E-004	
  9.83040E+000	 -1.24093E-004	 -1.64938E-004	 -4.07213E-004	  1.50345E-004	 -1.16542E-003	  5.98890E-005	 -2.05684E-004	 -3.17182E-005	 -1.56525E-004	 -2.48474E-004	  9.28811E-004	
  1.06496E+001	 -6.84989E-005	 -3.51202E-004	  8.95625E-005	  5.15918E-004	  4.18481E-005	 -5.60875E-004	  9.29199E-005	  4.06076E-005	 -4.47111E-004	 -3.93395E-005	 -6.73179E-005	
  1.14688E+001	  3.23594E-005	  6.08871E-007	 -3.53550E-004	  2.68756E-004	  6.60454E-005	  3.86156E-004	  1.59967E-004	  1.30918E-004	 -4.15555E-005	 -6.91457E-004	  3.97706E-004	
  1.22880E+001	  9.70191E-005	  6.19365E-004	 -2.36704E-005	  3.31457E-004	 -4.02012E-004	  2.01669E-004	  1.51692E-004	 -2.66903E-005	 -3.37992E-004	  1.32120E-005	  4.43162E-004	
  1.31072E+001	  2.07632E-006	  2.84342E-004	 -6.50875E-005	  1.35633E-004	 -1.34177E-004	 -4.40785E-004	  1.60439E-004	 -2.52473E-004	 -1.70942E-005	  1.08697E-004	  2.41269E-004	
  1.47456E+001	  2.32347E-004	  3.17532E-004	  3.09271E-004	  2.19707E-004	  4.32369E-004	  6.04104E-004	  2.71643E-004	 -2.23301E-004	 -1.03234E-004	  4.66091E-004	  2.92875E-005	
  1.63840E+001	  4.10211E-005	  4.43627E-004	  3.17848E-004	  1.26140E-004	 -9.76512E-005	  6.09985E-005	  3.13440E-004	  2.28369E-004	 -1.75514E-004	 -1.72785E-004	 -6.34261E-004	
  1.80224E+001	  2.12910E-005	 -2.64933E-005	  2.28538E-004	 -8.58401E-004	 -2.36803E-004	  3.42917E-004	  1.73683E-004	  7.78491E-004	 -2.31530E-004	  4.28683E-004	 -3.86175E-004	
  1.96608E+001	  2.78545E-005	  1.62016E-004	 -2.49803E-004	  3.68189E-004	 -1.03120E-003	  2.56346E-004	  2.36400E-004	  2.15901E-004	  1.15174E-005	 -1.10014E-004	  4.19196E-004	
  2.12992E+001	  8.28104E-005	 -9.77020E-005	 -4.24963E-005	 -9.85397E-005	 -1.33836E-004	  2.61453E-004	  3.68788E-004	  2.50175E-004	 -2.12279E-004	  3.01437E-004	  2.31106E-004	
  2.29376E+001	  2.48321E-004	 -2.95391E-004	 -3.58982E-004	  1.03593E-003	  2.62642E-005	 -1.45454E-004	  4.71533E-004	  8.17438E-004	  3.44267E-004	  7.24442E-005	  5.15170E-004	
  2.45760E+001	  8.13661E-005	  1.05107E-004	 -2.28308E-004	 -4.04304E-005	  5.27291E-004	 -5.34286E-005	 -2.96516E-004	  1.01106E-005	 -7.72694E-005	  6.45138E-004	  2.21967E-004	
  2.62144E+001	 -6.06323E-006	  5.04737E-004	 -1.19825E-004	 -7.17266E-004	  4.50783E-005	  1.52118E-004	 -5.46245E-005	 -2.61563E-004	 -5.19970E-005	  2.52845E-004	  1.89864E-004	
  2.94912E+001	  6.60070E-005	  7.54107E-005	  2.20116E-004	  2.60712E-004	  2.19113E-004	 -3.07055E-004	  2.12583E-004	 -1.04582E-004	  1.78005E-004	 -2.80449E-004	  1.86215E-004	
  3.27680E+001	  4.74048E-005	  1.61034E-004	  1.24499E-004	 -1.60172E-004	  3.05858E-004	 -7.34285E-005	  5.01507E-005	 -1.90835E-004	 -1.60845E-005	  2.89631E-004	 -1.66043E-005	
  3.60448E+001	  1.54088E-004	 -1.90281E-004	  3.91903E-004	  2.74040E-005	  2.18843E-004	 -1.20493E-004	  3.81256E-004	 -9.33723E-005	  3.49283E-004	  6.36086E-004	 -5.97491E-005	
  3.93216E+001	  1.41024E-004	  3.41255E-004	 -2.63379E-004	 -1.86611E-004	  1.94863E-004	  1.35364E-004	  1.24572E-004	  7.23649E-005	  2.83166E-004	  6.62782E-004	  4.58634E-005	
  4.25984E+001	 -1.19091E-005	 -1.99258E-004	 -2.10260E-004	  2.22203E-004	 -1.25372E-004	  2.41660E-004	  4.55954E-005	  1.17027E-004	  1.36219E-004	 -1.58466E-004	 -1.88439E-004	
  4.58752E+001	  3.61091E-005	  2.39059E-004	  1.02489E-004	  1.90515E-004	  1.96058E-004	  3.73598E-005	 -2.52910E-004	 -1.96403E-004	 -2.75351E-004	  8.44721E-005	  2.35802E-004	
  4.91520E+001	 -2.38570E-005	 -1.18691E-004	  1.56649E-004	 -1.25526E-004	  2.59716E-004	 -1.90330E-004	  3.30140E-004	 -4.68634E-004	 -3.65984E-004	  1.16418E-004	  1.67672E-004	
  5.24288E+001	  5.04567E-005	 -2.65019E-004	  7.91641E-005	  2.95016E-006	  2.54879E-004	  4.00514E-005	  2.48763E-004	  1.87043E-005	 -8.33142E-005	  4.91770E-005	  1.59210E-004	
  5.89824E+001	  4.28757E-005	  3.94104E-004	  8.73787E-005	 -1.39858E-004	  1.08670E-004	 -1.05058E-004	 -1.91628E-005	  1.47005E-004	 -2.10301E-004	  7.48077E-005	  9.11710E-005	
  6.55360E+001	 -2.84548E-006	 -1.89996E-004	 -3.01638E-005	 -2.96498E-004	  2.55603E-004	  8.01500E-005	 -8.25173E-005	  2.84117E-005	 -7.51233E-005	  1.45866E-004	  1.35812E-004	
  7.20896E+001	  1.72130E-006	  2.58912E-004	 -2.05702E-004	 -1.86253E-004	 -9.14713E-006	  2.65431E-004	  1.16019E-004	 -1.77230E-004	  9.68452E-005	 -1.28727E-005	 -1.28790E-004	
  7.86432E+001	 -1.08462E-005	  2.45517E-004	  1.21587E-004	 -7.62468E-005	 -1.16750E-004	 -2.26512E-004	  1.19165E-004	 -1.22299E-004	 -1.92483E-004	  1.48917E-004	 -9.35732E-006	
  8.51968E+001	  4.60702E-005	  2.09380E-004	 -1.27517E-005	  1.41261E-004	 -1.43013E-004	  2.61392E-004	 -1.59516E-004	  5.34090E-005	  9.85050E-005	  1.21738E-004	 -1.09702E-004	
  9.17504E+001	 -3.03307E-005	  1.78469E-004	  7.01111E-005	 -5.87081E-005	 -1.03874E-004	 -8.98328E-005	 -3.54090E-006	 -6.83204E-006	 -4.20474E-006	 -2.28740E-005	 -2.62021E-004	
  9.83040E+001	  8.26910E-005	  3.97328E-005	  3.86411E-004	  1.82058E-004	 -6.85322E-005	  1.41744E-004	  1.03266E-005	  2.19457E-005	 -9.99690E-005	 -2.68871E-005	  2.40080E-004	
  1.04858E+002	  1.86730E-005	 -3.30451E-005	  1.64238E-004	  7.53861E-005	  1.27901E-004	  1.98186E-004	  5.86622E-005	 -1.47064E-004	 -2.76046E-005	 -2.19639E-005	 -2.07966E-004	
  1.17965E+002	 -6.02567E-005	  1.25159E-004	 -3.12197E-005	 -1.62754E-004	 -9.45229E-005	 -1.76823E-004	  1.22652E-004	 -5.49535E-006	 -4.48451E-005	 -2.54184E-005	 -3.09298E-004	
  1.31072E+002	 -1.43637E-006	  8.13117E-005	  1.25148E-004	 -3.55197E-005	 -9.77914E-005	 -1.58411E-004	 -2.75854E-005	 -1.58324E-005	  2.10735E-004	  7.08595E-005	 -1.67278E-004	
  1.44179E+002	 -2.76664E-005	 -5.55834E-005	  1.92507E-005	  7.08091E-005	 -1.36735E-004	  3.18248E-005	 -8.56920E-005	 -8.00389E-005	  9.61078E-006	  3.24375E-005	 -8.25471E-005	
  1.57286E+002	 -2.38293E-005	  2.26806E-004	  5.58355E-005	  1.39425E-004	 -6.91075E-005	 -2.59380E-004	  5.79966E-005	  9.58882E-005	  1.03939E-005	 -2.56521E-004	 -2.39629E-004	
  1.70394E+002	  6.14857E-005	 -1.85107E-005	  7.28900E-005	  2.18909E-004	 -2.17079E-005	  2.82667E-004	  1.88499E-004	 -1.32912E-005	  6.69105E-005	 -3.33220E-005	 -1.28186E-004	
  1.83501E+002	  4.98167E-005	  1.35785E-004	  1.56506E-004	  5.08742E-005	 -7.25198E-005	  1.39923E-004	  1.43568E-004	  2.31160E-004	 -5.70154E-005	 -8.93687E-005	 -1.40746E-004	
  1.96608E+002	 -2.37452E-005	 -5.56242E-005	  1.13132E-004	  1.41610E-004	 -2.09732E-004	 -1.65218E-004	 -7.84762E-005	 -2.36571E-005	 -1.04903E-004	  3.42941E-005	  1.11123E-004	
  2.09715E+002	  2.06042E-005	  1.41037E-004	 -3.21610E-005	  1.32150E-004	 -1.57135E-004	 -6.33917E-005	 -5.99172E-005	  2.08911E-004	 -1.11583E-004	  1.20650E-004	  2.74826E-005	
  2.35930E+002	  1.95897E-005	  2.15560E-005	  9.77178E-005	  1.07799E-004	 -1.15292E-004	 -8.31952E-005	 -4.14441E-005	  1.16977E-004	  1.03442E-004	  8.55442E-005	 -9.72067E-005	
  2.62144E+002	  3.45946E-005	  1.04002E-004	 -1.09034E-004	  9.74076E-005	  5.72287E-005	 -4.32908E-006	  8.88272E-005	  9.68251E-005	 -1.27743E-004	  1.21727E-004	  2.10334E-005	
  2.88358E+002	  4.17679E-005	  1.01455E-005	  5.21062E-005	  8.23564E-006	  8.61985E-005	  1.44359E-004	 -1.59416E-005	  4.12779E-005	  7.42571E-006	  1.48439E-007	  8.37241E-005	
  3.14573E+002	  1.90017E-005	  1.33158E-004	  1.01455E-004	 -4.10803E-005	 -8.79522E-005	 -6.39851E-005	 -3.72515E-005	  5.00334E-005	 -6.25366E-005	  1.32959E-004	  6.52179E-005	
  3.40787E+002	  6.40215E-005	 -4.20525E-006	  2.31284E-005	  1.37479E-004	  2.71201E-005	  7.37847E-005	 -3.14386E-005	  2.63373E-006	  2.54734E-005	  1.30384E-004	  2.55855E-004	
  3.67002E+002	  8.21992E-006	 -3.96587E-006	  1.32994E-004	 -2.61264E-006	  4.45458E-005	 -3.34852E-005	 -1.29666E-004	 -1.26564E-005	  1.12366E-005	  1.56659E-005	  6.01430E-005	
  3.93216E+002	  4.97566E-005	  1.75813E-004	 -5.53097E-005	  2.66901E-005	 -7.53334E-005	  2.14914E-004	  5.25787E-005	  3.42363E-005	 -3.07661E-005	  1.21842E-004	  3.29004E-005	
  4.19430E+002	  3.40957E-005	  5.56005E-005	  2.71096E-005	  1.45617E-004	 -7.91758E-005	  1.17505E-004	 -1.19369E-005	  2.49871E-005	 -9.63001E-006	  1.07990E-004	 -3.71095E-005	
  4.71859E+002	  4.03133E-005	 -1.12668E-004	  4.49728E-005	  3.64595E-005	  1.01956E-005	  1.00872E-004	 -2.02373E-005	  5.67279E-005	  1.00022E-004	  1.04597E-004	  8.21911E-005	
  5.24288E+002	  9.28573E-006	 -8.97337E-005	  4.38474E-005	 -4.24250E-006	  9.26558E-007	  5.25515E-005	  2.51733E-005	  4.92402E-005	 -6.75008E-005	 -4.89763E-006	  8.74930E-005	
  5.76717E+002	  1.81674E-005	  4.64547E-005	  9.82684E-005	  2.65847E-005	  3.47160E-005	  4.45497E-006	  1.91392E-005	  4.39200E-005	 -3.73264E-005	 -6.71265E-005	  1.25893E-005	
  6.29146E+002	  7.16707E-006	 -3.60263E-005	  1.37738E-004	  7.09651E-005	  5.96948E-005	  4.23080E-005	 -1.45530E-004	  1.57937E-005	  3.93684E-005	 -3.48468E-005	 -7.77939E-005	
  6.81574E+002	  6.92147E-006	  4.61985E-005	  8.45475E-005	  2.40366E-005	 -4.28729E-005	  6.90357E-005	 -5.71733E-006	 -5.79408E-006	  3.26176E-005	 -2.49083E-005	 -1.07929E-004	
  7.34003E+002	 -1.66230E-005	 -6.07128E-005	  1.45947E-005	 -1.90626E-005	 -3.95859E-005	  1.40083E-005	 -3.29366E-005	 -1.91130E-005	  7.53283E-005	 -7.05890E-005	 -2.81613E-005	
  7.86432E+002	  2.79555E-005	 -9.03178E-005	  4.51952E-005	  6.29605E-005	 -5.15822E-005	  4.00770E-005	  4.44182E-005	  7.65030E-005	  9.72882E-005	  3.63669E-005	  1.86464E-005	
  8.38861E+002	  8.76405E-006	 -1.34029E-004	  3.73893E-005	 -9.09432E-006	  1.31068E-005	 -2.06410E-005	  4.46410E-005	  1.00386E-004	  7.60670E-005	 -5.18749E-005	  3.16893E-005	
  9.43718E+002	 -1.88834E-005	 -4.36069E-005	  8.98470E-005	  3.08550E-005	 -3.12858E-005	 -8.28810E-005	 -2.91920E-005	  3.22365E-005	 -7.34828E-005	 -9.03704E-005	  9.04623E-006	
  1.04858E+003	  4.20085E-005	 -5.39780E-005	  6.41453E-005	  4.61114E-005	  2.07078E-005	  6.07349E-005	  6.78929E-005	  4.12800E-005	  9.75679E-006	  8.34352E-005	  7.99983E-005	
  1.15343E+003	  1.59390E-005	 -2.43765E-005	  5.53130E-006	  4.11859E-005	 -4.97198E-005	  3.33353E-006	  1.05625E-005	  5.56442E-006	  4.08743E-005	  2.64918E-005	  9.99422E-005	
  1.25829E+003	  8.67395E-006	  1.01369E-004	  1.63556E-005	  4.94303E-005	 -2.05063E-005	  1.74246E-005	 -4.46277E-005	 -6.18614E-005	  1.90771E-005	  1.09473E-005	 -8.68811E-007	
  1.36315E+003	  6.87553E-006	 -6.58773E-006	  7.61461E-005	 -5.63866E-005	  7.59575E-005	  1.74088E-005	 -8.71953E-005	  2.40643E-005	 -5.60035E-005	 -1.24745E-005	  9.38262E-005	
  1.46801E+003	 -3.59085E-005	 -6.61810E-005	  4.16832E-005	 -2.34546E-005	  1.51183E-006	 -1.02034E-004	  1.33395E-005	 -7.90695E-005	 -1.11306E-005	 -9.26239E-005	 -4.11263E-005	
  1.57286E+003	 -2.64586E-005	 -1.26420E-004	  1.59535E-005	 -6.47769E-005	 -7.55820E-005	 -3.52939E-005	  4.02565E-005	 -4.48287E-005	  5.64043E-005	 -4.79991E-005	  1.77001E-005	
  1.67772E+003	  4.77888E-006	 -4.53783E-005	  3.49306E-005	 -5.93351E-005	 -3.16933E-005	  6.21760E-005	  4.91740E-005	  7.73353E-007	  2.73446E-005	 -4.90641E-005	  5.88610E-005	
  1.88744E+003	 -1.47359E-005	  1.86689E-005	  3.22104E-005	 -8.91611E-005	  4.98381E-005	 -1.96823E-005	  3.75633E-006	 -3.02934E-005	  4.78202E-006	 -5.96007E-005	 -5.78776E-005	
  2.09715E+003	  1.19112E-005	  2.87926E-005	  4.81764E-005	 -4.21975E-005	 -2.43177E-006	 -4.25874E-005	 -1.17771E-005	  5.23563E-005	 -1.11842E-005	 -8.70300E-006	  1.08667E-004	
  2.30687E+003	  8.72501E-006	  7.42886E-005	  8.24654E-006	  2.01937E-006	  5.01723E-005	 -1.58284E-005	  8.98707E-006	 -5.75612E-005	  3.04370E-005	 -2.43858E-005	  1.08747E-005	
  2.51658E+003	 -1.73221E-006	  8.73306E-005	 -4.95599E-005	 -3.03145E-006	  9.89444E-006	 -5.17375E-005	  5.14032E-005	 -3.51263E-005	 -5.04755E-005	 -1.58816E-005	  3.98619E-005	
  2.72630E+003	 -2.59332E-005	 -2.84926E-005	 -2.92478E-005	 -5.64475E-005	 -3.75147E-005	 -8.21898E-005	  2.50590E-005	  5.84596E-006	 -3.09673E-005	 -1.49860E-005	 -1.03914E-005	
  2.93601E+003	 -8.38115E-006	 -5.84441E-005	  8.18568E-006	  1.50983E-005	 -3.35726E-005	 -9.98604E-006	 -1.00622E-005	  1.93688E-005	  3.76074E-005	 -6.77779E-005	  1.57710E-005	
  3.14573E+003	 -1.71264E-005	  7.85238E-006	  7.53175E-006	 -1.05015E-005	  4.21247E-005	 -3.34130E-005	 -9.58736E-005	  3.58676E-005	 -3.99705E-005	 -4.11853E-005	 -4.36969E-005	
  3.35544E+003	 -4.25258E-006	  3.03457E-005	 -3.76673E-005	  2.53869E-005	 -5.00474E-006	 -9.89346E-006	 -2.41549E-005	 -8.48080E-006	 -5.79480E-006	 -2.56019E-005	  1.83395E-005	
  3.77487E+003	 -1.41825E-005	 -9.48757E-005	  2.20943E-005	 -1.57681E-005	 -2.45560E-005	  1.29914E-005	 -1.33002E-005	  2.25684E-006	 -1.79039E-005	  1.17229E-006	 -1.39359E-005	
  4.19430E+003	  6.89536E-006	  5.76731E-007	 -4.90885E-006	  1.32858E-005	 -3.73250E-005	  7.69088E-006	  1.19704E-005	  2.98670E-005	 -6.25226E-006	  6.71727E-006	  4.73315E-005	
  4.61373E+003	  3.12336E-005	  5.05497E-005	 -4.80406E-006	  4.04433E-005	  6.62423E-005	  6.50604E-005	  3.90571E-005	 -2.23584E-005	  2.34019E-005	  2.04992E-005	  3.42442E-005	
  5.03317E+003	  7.81381E-006	  3.79576E-005	  1.92195E-005	 -3.08698E-005	 -6.23434E-006	  3.07881E-005	 -8.29181E-006	  2.95829E-005	 -1.12820E-005	  1.45298E-005	  2.73800E-006	
  5.45260E+003	  5.63498E-006	 -3.09860E-005	  1.23558E-005	  3.11152E-005	 -1.74332E-007	  5.78796E-005	 -1.55262E-005	 -3.25343E-005	 -7.72137E-006	  5.75977E-005	 -1.56564E-005	
  5.87203E+003	 -4.73161E-006	 -4.90936E-005	  1.90844E-005	  2.61257E-005	  8.62237E-006	  5.46357E-006	 -5.21226E-005	 -1.20076E-005	 -2.86529E-005	  1.32301E-005	  2.20345E-005	
  6.29146E+003	  1.60667E-006	 -1.82442E-005	  8.33951E-006	 -4.07615E-005	  3.37154E-005	  6.61828E-008	  3.83415E-005	 -6.67198E-005	  5.65214E-006	  2.01937E-006	  5.36581E-005	
  6.71089E+003	  8.75172E-007	  6.62338E-005	  1.91248E-005	 -1.85692E-005	  1.15225E-005	 -5.05429E-005	  5.38583E-005	 -8.27379E-005	 -3.36341E-005	  2.14417E-005	  2.20547E-005	
  7.54975E+003	 -1.08380E-005	  2.50494E-005	  2.68451E-005	  7.58893E-005	 -2.83601E-005	 -5.36638E-005	 -4.77852E-005	 -2.69499E-005	 -2.39454E-005	 -3.52124E-005	 -2.02474E-005	
  8.38861E+003	 -1.85215E-005	 -1.28287E-004	  4.94931E-006	 -3.47950E-005	 -3.15559E-006	 -5.76940E-005	  2.87691E-005	  4.22156E-005	  3.24303E-005	 -5.76867E-005	 -1.19615E-005	
  9.22747E+003	  5.71221E-006	  1.61918E-005	 -3.95666E-005	  3.00552E-005	 -5.23868E-006	 -5.62285E-006	  1.80761E-005	  1.37025E-005	  8.70577E-005	 -3.42564E-005	 -2.32765E-005	
  1.00663E+004	 -1.53510E-006	  6.88606E-005	 -8.77051E-005	 -2.65749E-005	 -3.21275E-005	  2.75407E-005	 -1.87100E-005	  2.08298E-005	  7.38295E-005	  2.25939E-005	 -6.38882E-005	
  1.09052E+004	  1.03958E-005	 -4.08180E-006	 -8.64728E-005	  3.01073E-005	  3.01245E-005	  3.16861E-005	 -2.15941E-005	  2.76668E-005	  2.34844E-005	  1.05926E-004	 -3.28878E-005	
  1.17441E+004	 -6.66542E-007	  2.36707E-005	 -5.53968E-005	  1.71249E-005	  2.89451E-007	 -1.94164E-007	 -3.11218E-005	  5.85845E-006	 -1.34480E-006	  5.44783E-005	 -2.00297E-005	
  1.25829E+004	 -2.77339E-005	  5.91758E-005	 -3.06174E-005	 -5.89461E-005	  2.82230E-005	 -6.48524E-005	  7.19184E-007	 -6.99125E-005	 -3.04696E-005	 -8.46010E-005	 -2.60580E-005	

"Count Rate"
       0.11719	      98.14198	       0.00000	       0.00000	       0.00000
       0.23438	     101.44831	       0.00000	       0.00000	       0.00000
       0.35156	     101.16711	       0.00000	       0.00000	       0.00000
       0.46875	      92.38997	       0.00000	       0.00000	       0.00000
       0.58594	      99.45428	       0.00000	       0.00000	       0.00000
       0.70313	      94.00906	       0.00000	       0.00000	       0.00000
       0.82031	      99.91444	       0.00000	       0.00000	       0.00000
       0.93750	      99.16456	       0.00000	       0.00000	       0.00000
       1.05469	      95.37249	       0.00000	       0.00000	       0.00000
       1.17188	      99.53098	       0.00000	       0.00000	       0.00000
       1.28906	      94.82712	       0.00000	       0.00000	       0.00000
       1.40625	      97.74998	       0.00000	       0.00000	       0.00000
       1.52344	      98.38910	       0.00000	       0.00000	       0.00000
       1.64063	      98.39762	       0.00000	       0.00000	       0.00000
       1.75781	      99.13899	       0.00000	       0.00000	       0.00000
       1.87500	      96.56550	       0.00000	       0.00000	       0.00000
       1.99219	     102.36864	       0.00000	       0.00000	       0.00000
       2.10938	      97.00010	       0.00000	       0.00000	       0.00000
       2.22656	      97.34948	       0.00000	       0.00000	       0.00000
       2.34375	      95.90935	       0.00000	       0.00000	       0.00000
       2.46094	      99.19864	       0.00000	       0.00000	       0.00000
       2.57813	      99.01117	       0.00000	       0.00000	       0.00000
       2.69531	      98.36353	       0.00000	       0.00000	       0.00000
       2.81250	      98.63622	       0.00000	       0.00000	       0.00000
       2.92969	      96.31837	       0.00000	       0.00000	       0.00000
       3.04688	      98.18459	       0.00000	       0.00000	       0.00000
       3.16406	      97.92894	       0.00000	       0.00000	       0.00000
       3.28125	      93.62559	       0.00000	       0.00000	       0.00000
       3.39844	      93.47220	       0.00000	       0.00000	       0.00000
       3.51563	      98.49988	       0.00000	       0.00000	       0.00000
       3.63281	      97.22166	       0.00000	       0.00000	       0.00000
       3.75000	     100.78364	       0.00000	       0.00000	       0.00000
       3.86719	     102.69245	       0.00000	       0.00000	       0.00000
       3.98438	      93.84715	       0.00000	       0.00000	       0.00000
       4.10156	      94.72486	       0.00000	       0.00000	       0.00000
       4.21875	      99.24977	       0.00000	       0.00000	       0.00000
       4.33594	      99.29237	       0.00000	       0.00000	       0.00000
       4.45313	      93.09725	       0.00000	       0.00000	       0.00000
       4.57031	      97.12792	       0.00000	       0.00000	       0.00000
       4.68750	     100.68138	       0.00000	       0.00000	       0.00000
       4.80469	      99.76958	       0.00000	       0.00000	       0.00000
       4.92188	      95.75596	       0.00000	       0.00000	       0.00000
       5.03906	      95.05720	       0.00000	       0.00000	       0.00000
       5.15625	      95.82413	       0.00000	       0.00000	       0.00000
       5.27344	      94.83564	       0.00000	       0.00000	       0.00000
       5.39063	      96.01160	       0.00000	       0.00000	       0.00000
       5.50781	      98.50840	       0.00000	       0.00000	       0.00000
       5.62500	      97.35800	       0.00000	       0.00000	       0.00000
       5.74219	     102.61576	       0.00000	       0.00000	       0.00000
       5.85938	      97.01714	       0.00000	       0.00000	       0.00000
       5.97656	      98.55101	       0.00000	       0.00000	       0.00000
       6.09375	      95.85822	       0.00000	       0.00000	       0.00000
       6.21094	      93.50629	       0.00000	       0.00000	       0.00000
       6.32813	     102.62428	       0.00000	       0.00000	       0.00000
       6.44531	      97.14497	       0.00000	       0.00000	       0.00000
       6.56250	      92.82457	       0.00000	       0.00000	       0.00000
       6.67969	      93.69376	       0.00000	       0.00000	       0.00000
       6.79688	     101.65283	       0.00000	       0.00000	       0.00000
       6.91406	     102.68393	       0.00000	       0.00000	       0.00000
       7.03125	      93.45515	       0.00000	       0.00000	       0.00000
       7.14844	      97.58808	       0.00000	       0.00000	       0.00000
       7.26563	     102.97366	       0.00000	       0.00000	       0.00000
       7.38281	      95.79857	       0.00000	       0.00000	       0.00000
       7.50000	      97.40060	       0.00000	       0.00000	       0.00000
       7.61719	      93.85567	       0.00000	       0.00000	       0.00000
       7.73438	      99.35203	       0.00000	       0.00000	       0.00000
       7.85156	      98.53397	       0.00000	       0.00000	       0.00000
       7.96875	      99.50542	       0.00000	       0.00000	       0.00000
       8.08594	      99.63324	       0.00000	       0.00000	       0.00000
       8.20313	     104.38823	       0.00000	       0.00000	       0.00000
       8.32031	      99.88888	       0.00000	       0.00000	       0.00000
       8.43750	      94.00053	       0.00000	       0.00000	       0.00000
       8.55469	      99.60767	       0.00000	       0.00000	       0.00000
       8.67188	      97.75851	       0.00000	       0.00000	       0.00000
       8.78906	      98.34649	       0.00000	       0.00000	       0.00000
       8.90625	      95.96899	       0.00000	       0.00000	       0.00000
       9.02344	      98.32945	       0.00000	       0.00000	       0.00000
       9.14063	      99.25829	       0.00000	       0.00000	       0.00000
       9.25781	      99.45428	       0.00000	       0.00000	       0.00000
       9.37500	     103.20374	       0.00000	       0.00000	       0.00000
       9.49219	     100.29791	       0.00000	       0.00000	       0.00000
       9.60938	      98.85778	       0.00000	       0.00000	       0.00000
       9.72656	     100.77512	       0.00000	       0.00000	       0.00000
       9.84375	      96.48029	       0.00000	       0.00000	       0.00000
       9.96094	     101.58466	       0.00000	       0.00000	       0.00000
      10.07813	      97.85225	       0.00000	       0.00000	       0.00000
      10.19531	      98.37206	       0.00000	       0.00000	       0.00000
      10.31250	      99.27534	       0.00000	       0.00000	       0.00000
      10.42969	      93.65968	       0.00000	       0.00000	       0.00000
      10.54688	     101.75509	       0.00000	       0.00000	       0.00000
      10.66406	     101.61874	       0.00000	       0.00000	       0.00000
      10.78125	      96.69332	       0.00000	       0.00000	       0.00000
      10.89844	      95.78152	       0.00000	       0.00000	       0.00000
      11.01563	     101.61874	       0.00000	       0.00000	       0.00000
      11.13281	      95.53440	       0.00000	       0.00000	       0.00000
      11.25000	      93.17395	       0.00000	       0.00000	       0.00000
      11.36719	      97.92042	       0.00000	       0.00000	       0.00000
      11.48438	      97.65625	       0.00000	       0.00000	       0.00000
      11.60156	     100.57060	       0.00000	       0.00000	       0.00000
      11.71875	     100.09340	       0.00000	       0.00000	       0.00000
      11.83594	     100.47687	       0.00000	       0.00000	       0.00000
      11.95313	      97.92894	       0.00000	       0.00000	       0.00000
      12.07031	      97.57956	       0.00000	       0.00000	       0.00000
      12.18750	      97.87781	       0.00000	       0.00000	       0.00000
      12.30469	      97.95451	       0.00000	       0.00000	       0.00000
      12.42188	      95.13389	       0.00000	       0.00000	       0.00000
      12.53906	      96.85523	       0.00000	       0.00000	       0.00000
      12.65625	     100.37460	       0.00000	       0.00000	       0.00000
      12.77344	      99.38612	       0.00000	       0.00000	       0.00000
      12.89063	      98.84074	       0.00000	       0.00000	       0.00000
      13.00781	      96.44620	       0.00000	       0.00000	       0.00000
      13.12500	      95.04868	       0.00000	       0.00000	       0.00000
      13.24219	      95.37249	       0.00000	       0.00000	       0.00000
      13.35938	      96.74445	       0.00000	       0.00000	       0.00000
      13.47656	      98.66179	       0.00000	       0.00000	       0.00000
      13.59375	      99.20716	       0.00000	       0.00000	       0.00000
      13.71094	      96.72741	       0.00000	       0.00000	       0.00000
      13.82813	      96.25873	       0.00000	       0.00000	       0.00000
      13.94531	     103.62129	       0.00000	       0.00000	       0.00000
      14.06250	      95.79005	       0.00000	       0.00000	       0.00000
      14.17969	      99.48837	       0.00000	       0.00000	       0.00000
      14.29688	     101.74657	       0.00000	       0.00000	       0.00000
      14.41406	     101.55058	       0.00000	       0.00000	       0.00000
      14.53125	      95.29580	       0.00000	       0.00000	       0.00000
      14.64844	      95.32989	       0.00000	       0.00000	       0.00000
      14.76563	      95.45771	       0.00000	       0.00000	       0.00000
      14.88281	      96.59959	       0.00000	       0.00000	       0.00000
      15.00000	      97.36652	       0.00000	       0.00000	       0.00000
      15.11719	      94.88676	       0.00000	       0.00000	       0.00000
      15.23438	      92.54336	       0.00000	       0.00000	       0.00000
      15.35156	     103.17818	       0.00000	       0.00000	       0.00000
      15.46875	      96.97453	       0.00000	       0.00000	       0.00000
      15.58594	      98.09085	       0.00000	       0.00000	       0.00000
      15.70313	     101.34605	       0.00000	       0.00000	       0.00000
      15.82031	      92.30476	       0.00000	       0.00000	       0.00000
      15.93750	     106.69755	       0.00000	       0.00000	       0.00000
      16.05469	      93.31882	       0.00000	       0.00000	       0.00000
      16.17188	      95.15093	       0.00000	       0.00000	       0.00000
      16.28906	     100.97963	       0.00000	       0.00000	       0.00000
      16.40625	      96.26725	       0.00000	       0.00000	       0.00000
      16.52344	      97.16200	       0.00000	       0.00000	       0.00000
      16.64063	      98.81518	       0.00000	       0.00000	       0.00000
      16.75781	      98.77257	       0.00000	       0.00000	       0.00000
      16.87500	      96.30134	       0.00000	       0.00000	       0.00000
      16.99219	     100.04227	       0.00000	       0.00000	       0.00000
      17.10938	     106.51008	       0.00000	       0.00000	       0.00000
      17.22656	      92.78196	       0.00000	       0.00000	       0.00000
      17.34375	      98.32093	       0.00000	       0.00000	       0.00000
      17.46094	      93.02908	       0.00000	       0.00000	       0.00000
      17.57813	      96.04569	       0.00000	       0.00000	       0.00000
      17.69531	      95.44919	       0.00000	       0.00000	       0.00000
      17.81250	      93.19952	       0.00000	       0.00000	       0.00000
      17.92969	      97.78407	       0.00000	       0.00000	       0.00000
      18.04688	     101.34605	       0.00000	       0.00000	       0.00000
      18.16406	      96.07126	       0.00000	       0.00000	       0.00000
      18.28125	      99.36055	       0.00000	       0.00000	       0.00000
      18.39844	      95.73891	       0.00000	       0.00000	       0.00000
      18.51563	      99.08786	       0.00000	       0.00000	       0.00000
      18.63281	      94.78451	       0.00000	       0.00000	       0.00000
      18.75000	      96.29282	       0.00000	       0.00000	       0.00000
      18.86719	      98.52544	       0.00000	       0.00000	       0.00000
      18.98438	      91.69973	       0.00000	       0.00000	       0.00000
      19.10156	      97.35800	       0.00000	       0.00000	       0.00000
      19.21875	     101.12450	       0.00000	       0.00000	       0.00000
      19.33594	      91.83607	       0.00000	       0.00000	       0.00000
      19.45313	      97.65625	       0.00000	       0.00000	       0.00000
      19.57031	      94.17096	       0.00000	       0.00000	       0.00000
      19.68750	      96.11386	       0.00000	       0.00000	       0.00000
      19.80469	      94.68225	       0.00000	       0.00000	       0.00000
      19.92188	      98.54249	       0.00000	       0.00000	       0.00000
      20.03906	      95.00607	       0.00000	       0.00000	       0.00000
      20.15625	      95.90935	       0.00000	       0.00000	       0.00000
      20.27344	      98.19311	       0.00000	       0.00000	       0.00000
      20.39063	      98.13345	       0.00000	       0.00000	       0.00000
      20.50781	     101.47388	       0.00000	       0.00000	       0.00000
      20.62500	      95.68779	       0.00000	       0.00000	       0.00000
      20.74219	      96.67628	       0.00000	       0.00000	       0.00000
      20.85938	      95.51736	       0.00000	       0.00000	       0.00000
      20.97656	      96.02013	       0.00000	       0.00000	       0.00000
      21.09375	      96.93192	       0.00000	       0.00000	       0.00000
      21.21094	      98.57658	       0.00000	       0.00000	       0.00000
      21.32813	      96.80410	       0.00000	       0.00000	       0.00000
      21.44531	      94.06870	       0.00000	       0.00000	       0.00000
      21.56250	      99.84628	       0.00000	       0.00000	       0.00000
      21.67969	      99.33498	       0.00000	       0.00000	       0.00000
      21.79688	      93.83862	       0.00000	       0.00000	       0.00000
      21.91406	      92.84161	       0.00000	       0.00000	       0.00000
      22.03125	      96.36098	       0.00000	       0.00000	       0.00000
      22.14844	      98.21015	       0.00000	       0.00000	       0.00000
      22.26563	      95.70483	       0.00000	       0.00000	       0.00000
      22.38281	      98.54249	       0.00000	       0.00000	       0.00000
      22.50000	      97.87781	       0.00000	       0.00000	       0.00000
      22.61719	      97.13644	       0.00000	       0.00000	       0.00000
      22.73438	      99.46281	       0.00000	       0.00000	       0.00000
      22.85156	      97.82668	       0.00000	       0.00000	       0.00000
      22.96875	      95.67927	       0.00000	       0.00000	       0.00000
      23.08594	      98.79813	       0.00000	       0.00000	       0.00000
      23.20313	      92.86717	       0.00000	       0.00000	       0.00000
      23.32031	     103.34009	       0.00000	       0.00000	       0.00000
      23.43750	      96.53142	       0.00000	       0.00000	       0.00000
      23.55469	      96.32690	       0.00000	       0.00000	       0.00000
      23.67188	      97.18757	       0.00000	       0.00000	       0.00000
      23.78906	      98.03120	       0.00000	       0.00000	       0.00000
      23.90625	      97.68182	       0.00000	       0.00000	       0.00000
      24.02344	      97.98007	       0.00000	       0.00000	       0.00000
      24.14063	      95.24467	       0.00000	       0.00000	       0.00000
      24.25781	      95.01459	       0.00000	       0.00000	       0.00000
      24.37500	      93.52333	       0.00000	       0.00000	       0.00000
      24.49219	     101.33753	       0.00000	       0.00000	       0.00000
      24.60938	      95.06572	       0.00000	       0.00000	       0.00000
      24.72656	      95.61109	       0.00000	       0.00000	       0.00000
      24.84375	      96.59106	       0.00000	       0.00000	       0.00000
      24.96094	      97.40060	       0.00000	       0.00000	       0.00000
      25.07813	      97.11940	       0.00000	       0.00000	       0.00000
      25.19531	      96.01160	       0.00000	       0.00000	       0.00000
      25.31250	      91.95538	       0.00000	       0.00000	       0.00000
      25.42969	     101.23528	       0.00000	       0.00000	       0.00000
      25.54688	      93.41255	       0.00000	       0.00000	       0.00000
      25.66406	      96.31837	       0.00000	       0.00000	       0.00000
      25.78125	      94.92085	       0.00000	       0.00000	       0.00000
      25.89844	      93.47220	       0.00000	       0.00000	       0.00000
      26.01563	      97.45174	       0.00000	       0.00000	       0.00000
      26.13281	      98.03120	       0.00000	       0.00000	       0.00000
      26.25000	      93.29325	       0.00000	       0.00000	       0.00000
      26.36719	      95.37249	       0.00000	       0.00000	       0.00000
      26.48438	      92.46667	       0.00000	       0.00000	       0.00000
      26.60156	     103.17818	       0.00000	       0.00000	       0.00000
      26.71875	      98.15050	       0.00000	       0.00000	       0.00000
      26.83594	      96.32690	       0.00000	       0.00000	       0.00000
      26.95313	      95.96047	       0.00000	       0.00000	       0.00000
      27.07031	     103.97919	       0.00000	       0.00000	       0.00000
      27.18750	      96.07126	       0.00000	       0.00000	       0.00000
      27.30469	      98.92596	       0.00000	       0.00000	       0.00000
      27.42188	      98.38910	       0.00000	       0.00000	       0.00000
      27.53906	      98.49136	       0.00000	       0.00000	       0.00000
      27.65625	      98.97708	       0.00000	       0.00000	       0.00000
      27.77344	      95.04868	       0.00000	       0.00000	       0.00000
      27.89063	     100.46835	       0.00000	       0.00000	       0.00000
      28.00781	      94.14540	       0.00000	       0.00000	       0.00000
      28.12500	      97.80964	       0.00000	       0.00000	       0.00000
      28.24219	      96.76150	       0.00000	       0.00000	       0.00000
      28.35938	      99.15604	       0.00000	       0.00000	       0.00000
      28.47656	      95.00607	       0.00000	       0.00000	       0.00000
      28.59375	      99.90592	       0.00000	       0.00000	       0.00000
      28.71094	      95.89230	       0.00000	       0.00000	       0.00000
      28.82813	      96.45472	       0.00000	       0.00000	       0.00000
      28.94531	      97.06827	       0.00000	       0.00000	       0.00000
      29.06250	      95.32137	       0.00000	       0.00000	       0.00000
      29.17969	      93.97497	       0.00000	       0.00000	       0.00000
      29.29688	      96.59106	       0.00000	       0.00000	       0.00000
      29.41406	      98.80666	       0.00000	       0.00000	       0.00000
      29.53125	      91.26514	       0.00000	       0.00000	       0.00000
      29.64844	      97.26427	       0.00000	       0.00000	       0.00000
      29.76563	      96.09682	       0.00000	       0.00000	       0.00000

Monitor Diode	      1.00
