ALV-7002/USB-25
Date :	"13/03/2025"
Time :	"10:33:38"
Samplename : 	""
SampMemo(0) : 	""
SampMemo(1) : 	""
SampMemo(2) : 	""
SampMemo(3) : 	""
SampMemo(4) : 	""
SampMemo(5) : 	""
SampMemo(6) : 	""
SampMemo(7) : 	""
SampMemo(8) : 	""
SampMemo(9) : 	""
Temperature [K] :	     298.16000
Viscosity [cp]  :	       0.89000
Refractive Index:	       1.33200
Wavelength [nm] :	     632.80000
Angle [°]       :	      90.00000
Duration [s]    :	        30
FloatDur [ms]   :	        29989
Stop TP [ms]   :	   1543038
Runs            :	        10
Mode            :	"A-CH0 "
MeanCR0 [kHz]   :	      91.82264
MeanCR1 [kHz]   :	       0.00000
MeanCR2 [kHz]   :	       0.00000
MeanCR3 [kHz]   :	       0.00000

"Correlation (Multi, Averaged)"
"Lag [ms]"	"Average"	" 1,  92.145"	" 2,  92.016"	" 3,  92.005"	" 4,  91.892"	" 5,  92.050"	" 6,  91.791"	" 7,  92.348"	" 8,  92.003"	" 9,  91.871"	"10,  91.823"	
  2.50000E-005	  1.21102E+002	  1.20884E+002	  1.20891E+002	  1.20948E+002	  1.21177E+002	  1.20946E+002	  1.21303E+002	  1.20856E+002	  1.21198E+002	  1.21409E+002	  1.21406E+002	
  5.00000E-005	  1.10664E+002	  1.10512E+002	  1.10485E+002	  1.10614E+002	  1.10664E+002	  1.10496E+002	  1.10848E+002	  1.10442E+002	  1.10757E+002	  1.10813E+002	  1.11012E+002	
  7.50000E-005	  8.32495E+001	  8.30060E+001	  8.31069E+001	  8.31341E+001	  8.32258E+001	  8.32370E+001	  8.32445E+001	  8.31829E+001	  8.34310E+001	  8.34165E+001	  8.35103E+001	
  1.00000E-004	  2.43787E+001	  2.42305E+001	  2.42920E+001	  2.42333E+001	  2.42463E+001	  2.43854E+001	  2.43488E+001	  2.45134E+001	  2.45438E+001	  2.43708E+001	  2.46227E+001	
  1.25000E-004	  7.88198E+000	  7.82019E+000	  7.86137E+000	  7.84830E+000	  7.83944E+000	  7.88796E+000	  7.80595E+000	  7.91390E+000	  7.97504E+000	  7.87967E+000	  7.98799E+000	
  1.50000E-004	  2.61727E+000	  2.61168E+000	  2.62373E+000	  2.61921E+000	  2.63732E+000	  2.65895E+000	  2.55565E+000	  2.62520E+000	  2.65738E+000	  2.58490E+000	  2.59872E+000	
  1.75000E-004	  1.96633E+000	  1.93776E+000	  1.99438E+000	  1.96608E+000	  1.98743E+000	  1.95279E+000	  1.93321E+000	  1.99505E+000	  1.95941E+000	  1.93935E+000	  1.99785E+000	
  2.00000E-004	  1.72127E+000	  1.74768E+000	  1.72232E+000	  1.72485E+000	  1.73873E+000	  1.71871E+000	  1.68926E+000	  1.73436E+000	  1.73280E+000	  1.68934E+000	  1.71464E+000	
  2.25000E-004	  1.47593E+000	  1.45093E+000	  1.47279E+000	  1.46328E+000	  1.49335E+000	  1.49204E+000	  1.48141E+000	  1.48842E+000	  1.50142E+000	  1.45119E+000	  1.46445E+000	
  2.50000E-004	  1.34266E+000	  1.35762E+000	  1.32329E+000	  1.34258E+000	  1.33088E+000	  1.35398E+000	  1.37218E+000	  1.34120E+000	  1.33787E+000	  1.31956E+000	  1.34745E+000	
  2.75000E-004	  1.27567E+000	  1.27452E+000	  1.26122E+000	  1.26254E+000	  1.25274E+000	  1.30566E+000	  1.29698E+000	  1.28784E+000	  1.28755E+000	  1.24749E+000	  1.28014E+000	
  3.00000E-004	  1.28615E+000	  1.28080E+000	  1.27194E+000	  1.27057E+000	  1.26098E+000	  1.30786E+000	  1.30031E+000	  1.29192E+000	  1.31638E+000	  1.26188E+000	  1.29887E+000	
  3.25000E-004	  1.37423E+000	  1.39972E+000	  1.38016E+000	  1.35865E+000	  1.38224E+000	  1.37287E+000	  1.39751E+000	  1.34591E+000	  1.39982E+000	  1.36554E+000	  1.33983E+000	
  3.50000E-004	  1.48644E+000	  1.49272E+000	  1.50918E+000	  1.45981E+000	  1.45753E+000	  1.51045E+000	  1.49850E+000	  1.47791E+000	  1.53040E+000	  1.47680E+000	  1.45111E+000	
  3.75000E-004	  1.62216E+000	  1.60048E+000	  1.63773E+000	  1.60289E+000	  1.57324E+000	  1.62977E+000	  1.67485E+000	  1.63485E+000	  1.64952E+000	  1.61776E+000	  1.60050E+000	
  4.00000E-004	  1.66685E+000	  1.64471E+000	  1.67396E+000	  1.66473E+000	  1.63308E+000	  1.68093E+000	  1.72971E+000	  1.66695E+000	  1.67706E+000	  1.66667E+000	  1.63066E+000	
  4.50000E-004	  1.50746E+000	  1.49955E+000	  1.52226E+000	  1.50055E+000	  1.50271E+000	  1.51966E+000	  1.56151E+000	  1.49706E+000	  1.48239E+000	  1.50097E+000	  1.48794E+000	
  5.00000E-004	  1.18373E+000	  1.18726E+000	  1.19522E+000	  1.17272E+000	  1.19662E+000	  1.20019E+000	  1.20327E+000	  1.17359E+000	  1.18460E+000	  1.19013E+000	  1.13369E+000	
  5.50000E-004	  9.05212E-001	  9.09991E-001	  9.08194E-001	  8.85316E-001	  9.20501E-001	  9.09286E-001	  8.80804E-001	  9.04106E-001	  9.11893E-001	  9.41707E-001	  8.80323E-001	
  6.00000E-004	  7.99583E-001	  7.94451E-001	  7.88469E-001	  8.08659E-001	  8.05502E-001	  8.05077E-001	  7.72920E-001	  7.84354E-001	  8.01537E-001	  8.20025E-001	  8.14838E-001	
  6.50000E-004	  7.34677E-001	  7.44653E-001	  7.14823E-001	  7.30898E-001	  7.32905E-001	  7.56672E-001	  7.11182E-001	  7.04624E-001	  7.23109E-001	  7.42353E-001	  7.85549E-001	
  7.00000E-004	  6.66813E-001	  6.59745E-001	  6.56693E-001	  6.58653E-001	  6.69026E-001	  6.88276E-001	  6.54113E-001	  6.30701E-001	  6.63233E-001	  6.80327E-001	  7.07364E-001	
  7.50000E-004	  6.09219E-001	  5.85991E-001	  6.04943E-001	  6.02558E-001	  6.21077E-001	  6.33495E-001	  5.96253E-001	  5.99782E-001	  6.04232E-001	  6.12690E-001	  6.31163E-001	
  8.00000E-004	  5.63849E-001	  5.35918E-001	  5.75052E-001	  5.63481E-001	  5.70433E-001	  5.81627E-001	  5.63484E-001	  5.61526E-001	  5.54150E-001	  5.58091E-001	  5.74728E-001	
  9.00000E-004	  4.93668E-001	  4.79247E-001	  4.95498E-001	  4.90723E-001	  4.75327E-001	  5.16536E-001	  4.90032E-001	  5.07339E-001	  4.92562E-001	  4.89941E-001	  4.99480E-001	
  1.00000E-003	  4.41410E-001	  4.51050E-001	  4.57256E-001	  4.35811E-001	  4.37721E-001	  4.36530E-001	  4.33003E-001	  4.32003E-001	  4.52432E-001	  4.20605E-001	  4.57689E-001	
  1.10000E-003	  3.92142E-001	  4.13583E-001	  4.08224E-001	  3.69001E-001	  3.89573E-001	  4.00009E-001	  3.87332E-001	  3.87312E-001	  3.93193E-001	  3.79676E-001	  3.93514E-001	
  1.20000E-003	  3.54806E-001	  3.57109E-001	  3.56632E-001	  3.37093E-001	  3.46895E-001	  3.68487E-001	  3.53653E-001	  3.47840E-001	  3.74044E-001	  3.37759E-001	  3.68550E-001	
  1.30000E-003	  3.28507E-001	  3.17915E-001	  3.43833E-001	  3.25945E-001	  3.32470E-001	  3.12605E-001	  3.30660E-001	  3.14606E-001	  3.51471E-001	  3.25827E-001	  3.29736E-001	
  1.40000E-003	  3.10418E-001	  2.99967E-001	  3.33357E-001	  3.04043E-001	  3.19750E-001	  2.95171E-001	  3.15225E-001	  3.03266E-001	  3.25634E-001	  2.92760E-001	  3.15011E-001	
  1.50000E-003	  2.96884E-001	  2.89167E-001	  3.14571E-001	  2.74972E-001	  3.02274E-001	  3.02806E-001	  2.95081E-001	  2.98401E-001	  3.04932E-001	  2.80868E-001	  3.05764E-001	
  1.60000E-003	  2.90599E-001	  2.82373E-001	  2.98995E-001	  2.82535E-001	  3.08020E-001	  2.91885E-001	  2.83366E-001	  2.99774E-001	  3.00433E-001	  2.77767E-001	  2.80840E-001	
  1.80000E-003	  3.00995E-001	  2.91759E-001	  3.11992E-001	  3.01168E-001	  2.92982E-001	  2.97630E-001	  2.91776E-001	  2.87003E-001	  3.02264E-001	  3.17274E-001	  3.16103E-001	
  2.00000E-003	  3.10392E-001	  3.07822E-001	  2.95470E-001	  3.29944E-001	  3.13192E-001	  3.16481E-001	  3.03649E-001	  3.10251E-001	  2.94441E-001	  3.11466E-001	  3.21203E-001	
  2.20000E-003	  3.28482E-001	  3.42676E-001	  3.15339E-001	  3.08002E-001	  3.20245E-001	  3.25985E-001	  3.24565E-001	  3.27417E-001	  3.36502E-001	  3.32899E-001	  3.51187E-001	
  2.40000E-003	  3.39907E-001	  3.66004E-001	  3.38004E-001	  3.31125E-001	  3.28844E-001	  3.29586E-001	  3.33786E-001	  3.41817E-001	  3.48206E-001	  3.29284E-001	  3.52417E-001	
  2.60000E-003	  3.35547E-001	  3.32132E-001	  3.34243E-001	  3.19150E-001	  3.42556E-001	  3.48515E-001	  3.31629E-001	  3.40699E-001	  3.23981E-001	  3.26657E-001	  3.55909E-001	
  2.80000E-003	  3.24557E-001	  3.21096E-001	  3.39993E-001	  2.90748E-001	  3.26051E-001	  3.35922E-001	  3.29393E-001	  3.22650E-001	  3.24957E-001	  3.26874E-001	  3.27890E-001	
  3.00000E-003	  3.03803E-001	  3.04758E-001	  2.94112E-001	  3.12611E-001	  3.06891E-001	  3.06269E-001	  3.14453E-001	  3.12664E-001	  2.85623E-001	  3.10123E-001	  2.90524E-001	
  3.20000E-003	  2.81502E-001	  2.77101E-001	  2.90272E-001	  2.94983E-001	  2.87265E-001	  2.90311E-001	  2.71454E-001	  2.84090E-001	  2.68027E-001	  2.83623E-001	  2.67892E-001	
  3.60000E-003	  2.37349E-001	  2.38270E-001	  2.58489E-001	  2.29966E-001	  2.35987E-001	  2.43332E-001	  2.30592E-001	  2.26224E-001	  2.38984E-001	  2.39158E-001	  2.32491E-001	
  4.00000E-003	  1.99239E-001	  1.93499E-001	  1.97180E-001	  2.17636E-001	  1.93160E-001	  1.91985E-001	  1.95795E-001	  1.96011E-001	  1.81825E-001	  2.12056E-001	  2.13243E-001	
  4.40000E-003	  1.73243E-001	  1.62100E-001	  1.73835E-001	  1.82537E-001	  1.66560E-001	  1.83937E-001	  1.60829E-001	  1.72832E-001	  1.86523E-001	  1.67995E-001	  1.75281E-001	
  4.80000E-003	  1.46153E-001	  1.40520E-001	  1.42447E-001	  1.44327E-001	  1.49342E-001	  1.42960E-001	  1.52301E-001	  1.48367E-001	  1.44164E-001	  1.53219E-001	  1.43878E-001	
  5.20000E-003	  1.29149E-001	  1.26058E-001	  1.32916E-001	  1.27634E-001	  1.35235E-001	  1.22241E-001	  1.34749E-001	  1.34673E-001	  1.34470E-001	  1.27046E-001	  1.16464E-001	
  5.60000E-003	  1.17276E-001	  1.19548E-001	  1.19831E-001	  1.12065E-001	  1.17145E-001	  1.11871E-001	  1.09153E-001	  1.17144E-001	  1.27214E-001	  1.20043E-001	  1.18746E-001	
  6.00000E-003	  1.05833E-001	  1.00295E-001	  1.10704E-001	  1.00109E-001	  9.99963E-002	  1.04728E-001	  1.06917E-001	  9.55932E-002	  1.14745E-001	  1.09416E-001	  1.15829E-001	
  6.40000E-003	  9.78414E-002	  9.52478E-002	  1.01227E-001	  8.64742E-002	  1.03875E-001	  9.59275E-002	  1.02440E-001	  9.19078E-002	  1.02692E-001	  9.78942E-002	  1.00728E-001	
  7.20000E-003	  8.90710E-002	  8.62151E-002	  8.46616E-002	  9.18758E-002	  9.20161E-002	  8.75648E-002	  9.60385E-002	  9.21579E-002	  9.77359E-002	  8.42444E-002	  7.82000E-002	
  8.00000E-003	  8.30490E-002	  7.82378E-002	  8.33571E-002	  9.39439E-002	  7.85675E-002	  8.67187E-002	  7.74131E-002	  8.04946E-002	  9.31527E-002	  7.45256E-002	  8.40787E-002	
  8.80000E-003	  7.63836E-002	  6.81595E-002	  7.95615E-002	  7.45284E-002	  7.21231E-002	  8.44509E-002	  7.33714E-002	  8.74740E-002	  8.41951E-002	  7.31181E-002	  6.68543E-002	
  9.60000E-003	  8.09134E-002	  7.19100E-002	  8.22691E-002	  8.93596E-002	  7.10384E-002	  8.11698E-002	  8.06583E-002	  8.25202E-002	  8.28714E-002	  9.16619E-002	  7.56749E-002	
  1.04000E-002	  7.41900E-002	  6.78993E-002	  7.37427E-002	  8.83896E-002	  6.87251E-002	  7.59116E-002	  7.09771E-002	  7.32942E-002	  7.37148E-002	  7.61552E-002	  7.30902E-002	
  1.12000E-002	  7.48231E-002	  7.87975E-002	  8.36771E-002	  6.55716E-002	  6.52577E-002	  7.62953E-002	  7.34011E-002	  7.39220E-002	  7.47947E-002	  8.03381E-002	  7.61759E-002	
  1.20000E-002	  7.70566E-002	  8.29506E-002	  7.27827E-002	  7.91964E-002	  7.28315E-002	  6.96346E-002	  7.91990E-002	  8.49231E-002	  7.84125E-002	  7.92171E-002	  7.14184E-002	
  1.28000E-002	  7.60302E-002	  7.32473E-002	  7.73842E-002	  7.78295E-002	  6.85364E-002	  7.84326E-002	  7.40636E-002	  8.05831E-002	  7.72272E-002	  7.89228E-002	  7.40757E-002	
  1.44000E-002	  7.22244E-002	  7.00171E-002	  7.18632E-002	  7.34841E-002	  6.41229E-002	  7.21827E-002	  7.25993E-002	  8.40765E-002	  7.15931E-002	  7.18485E-002	  7.04566E-002	
  1.60000E-002	  7.22476E-002	  7.10407E-002	  6.96380E-002	  7.29375E-002	  7.04707E-002	  7.67970E-002	  7.21664E-002	  7.20429E-002	  7.69203E-002	  7.87771E-002	  6.16857E-002	
  1.76000E-002	  7.05852E-002	  7.35222E-002	  6.99408E-002	  7.11427E-002	  7.04682E-002	  7.44554E-002	  6.82954E-002	  7.88849E-002	  6.31780E-002	  7.25744E-002	  6.33897E-002	
  1.92000E-002	  7.03532E-002	  7.92020E-002	  7.13319E-002	  6.72010E-002	  7.07456E-002	  7.17174E-002	  6.78229E-002	  7.26937E-002	  7.25063E-002	  6.77842E-002	  6.25269E-002	
  2.08000E-002	  6.90930E-002	  6.40206E-002	  6.43242E-002	  7.25978E-002	  6.78454E-002	  7.08343E-002	  7.02519E-002	  6.25263E-002	  7.81321E-002	  7.78091E-002	  6.25886E-002	
  2.24000E-002	  7.13529E-002	  7.16887E-002	  7.20310E-002	  7.25805E-002	  7.14490E-002	  6.86256E-002	  7.67127E-002	  6.55892E-002	  7.18220E-002	  6.61249E-002	  7.69059E-002	
  2.40000E-002	  6.84797E-002	  6.75331E-002	  7.37072E-002	  6.35006E-002	  7.27146E-002	  7.28897E-002	  5.81170E-002	  6.54245E-002	  6.84580E-002	  7.29868E-002	  6.94656E-002	
  2.56000E-002	  6.59801E-002	  6.38360E-002	  6.93720E-002	  6.55714E-002	  6.61190E-002	  6.93010E-002	  6.04200E-002	  6.61214E-002	  6.96997E-002	  6.62988E-002	  6.30620E-002	
  2.88000E-002	  6.52352E-002	  7.26761E-002	  6.45808E-002	  6.02338E-002	  6.44398E-002	  6.46581E-002	  7.06331E-002	  6.31259E-002	  6.15757E-002	  6.84347E-002	  6.19941E-002	
  3.20000E-002	  6.28352E-002	  5.98732E-002	  5.95767E-002	  6.36116E-002	  6.36695E-002	  6.55288E-002	  6.51930E-002	  5.72893E-002	  6.49435E-002	  6.38222E-002	  6.48441E-002	
  3.52000E-002	  6.38316E-002	  6.47283E-002	  5.90031E-002	  6.24890E-002	  6.79902E-002	  6.02111E-002	  6.69949E-002	  6.71968E-002	  6.32278E-002	  6.54630E-002	  6.10122E-002	
  3.84000E-002	  6.17373E-002	  5.57815E-002	  6.06963E-002	  6.41348E-002	  5.42993E-002	  6.59543E-002	  6.39748E-002	  6.68102E-002	  6.39109E-002	  5.87665E-002	  6.30450E-002	
  4.16000E-002	  6.06626E-002	  5.41418E-002	  6.22101E-002	  5.76129E-002	  6.24080E-002	  5.95974E-002	  6.69331E-002	  5.60359E-002	  6.82036E-002	  5.81146E-002	  6.13682E-002	
  4.48000E-002	  5.98595E-002	  5.75896E-002	  5.96477E-002	  6.19953E-002	  5.76218E-002	  5.65561E-002	  6.04067E-002	  5.82108E-002	  5.79123E-002	  6.07665E-002	  6.78881E-002	
  4.80000E-002	  5.73943E-002	  5.28658E-002	  5.47421E-002	  5.43372E-002	  5.58002E-002	  5.67774E-002	  5.87693E-002	  6.09231E-002	  5.88131E-002	  5.35787E-002	  6.73358E-002	
  5.12000E-002	  5.84516E-002	  5.34701E-002	  5.44580E-002	  5.87099E-002	  5.99354E-002	  6.18315E-002	  5.76378E-002	  5.72663E-002	  5.57915E-002	  6.18459E-002	  6.35697E-002	
  5.76000E-002	  5.64346E-002	  5.69169E-002	  5.68832E-002	  5.20918E-002	  5.97311E-002	  5.91329E-002	  5.52666E-002	  5.79002E-002	  5.41013E-002	  5.39539E-002	  5.83681E-002	
  6.40000E-002	  5.50683E-002	  5.53416E-002	  5.27947E-002	  5.42990E-002	  5.72444E-002	  5.41670E-002	  5.68064E-002	  5.36490E-002	  5.62453E-002	  5.74357E-002	  5.26998E-002	
  7.04000E-002	  5.45999E-002	  5.31899E-002	  5.84515E-002	  5.36176E-002	  5.43712E-002	  5.56046E-002	  5.20213E-002	  5.35993E-002	  5.64574E-002	  5.68989E-002	  5.17872E-002	
  7.68000E-002	  5.29724E-002	  5.14880E-002	  5.42012E-002	  5.40977E-002	  5.15927E-002	  5.34188E-002	  5.31792E-002	  5.36846E-002	  5.52108E-002	  5.06457E-002	  5.22058E-002	
  8.32000E-002	  4.95436E-002	  4.96863E-002	  4.81508E-002	  5.29524E-002	  5.10217E-002	  5.34498E-002	  5.00762E-002	  4.85359E-002	  5.03040E-002	  4.75943E-002	  4.36645E-002	
  8.96000E-002	  5.03533E-002	  4.94599E-002	  5.47251E-002	  5.09643E-002	  4.94558E-002	  5.11679E-002	  5.19684E-002	  5.02025E-002	  4.98195E-002	  4.69264E-002	  4.88437E-002	
  9.60000E-002	  4.94681E-002	  4.64671E-002	  4.71208E-002	  5.22724E-002	  4.94509E-002	  5.00414E-002	  5.09067E-002	  5.08736E-002	  4.66748E-002	  5.18173E-002	  4.90558E-002	
  1.02400E-001	  4.80535E-002	  4.70945E-002	  4.59761E-002	  4.90258E-002	  4.51085E-002	  4.86843E-002	  4.81590E-002	  4.89909E-002	  4.68791E-002	  5.08915E-002	  4.97257E-002	
  1.15200E-001	  4.53675E-002	  4.66666E-002	  4.61804E-002	  4.39963E-002	  4.19885E-002	  4.56307E-002	  4.35545E-002	  4.55355E-002	  4.64457E-002	  4.84942E-002	  4.51822E-002	
  1.28000E-001	  4.26973E-002	  4.19600E-002	  4.52284E-002	  4.51198E-002	  3.93185E-002	  4.07208E-002	  4.27850E-002	  4.38402E-002	  4.44271E-002	  4.09607E-002	  4.26120E-002	
  1.40800E-001	  4.17459E-002	  4.27644E-002	  4.08801E-002	  4.14746E-002	  4.17809E-002	  4.08922E-002	  4.18212E-002	  4.04363E-002	  4.20963E-002	  4.27613E-002	  4.25517E-002	
  1.53600E-001	  3.94874E-002	  3.78473E-002	  3.98441E-002	  3.78467E-002	  3.87567E-002	  4.13039E-002	  4.01590E-002	  3.79799E-002	  4.06601E-002	  3.93883E-002	  4.10882E-002	
  1.66400E-001	  3.64179E-002	  3.39240E-002	  3.72121E-002	  3.51809E-002	  3.70313E-002	  3.76759E-002	  3.56908E-002	  3.58627E-002	  3.81199E-002	  3.66032E-002	  3.68776E-002	
  1.79200E-001	  3.45330E-002	  3.26814E-002	  3.55027E-002	  3.20598E-002	  3.49397E-002	  3.49955E-002	  3.58267E-002	  3.52332E-002	  3.61216E-002	  3.60310E-002	  3.19380E-002	
  1.92000E-001	  3.39136E-002	  3.49985E-002	  3.38683E-002	  3.35140E-002	  3.35167E-002	  3.15664E-002	  3.42554E-002	  3.44323E-002	  3.22121E-002	  3.47507E-002	  3.60217E-002	
  2.04800E-001	  3.14501E-002	  3.17422E-002	  3.11751E-002	  3.04067E-002	  3.06035E-002	  3.03700E-002	  3.18942E-002	  3.04221E-002	  3.08625E-002	  3.34585E-002	  3.35658E-002	
  2.30400E-001	  2.97785E-002	  2.97981E-002	  2.97233E-002	  3.14820E-002	  2.71788E-002	  2.87126E-002	  2.95795E-002	  3.12823E-002	  3.02434E-002	  2.98075E-002	  2.99777E-002	
  2.56000E-001	  2.73166E-002	  2.81491E-002	  3.02840E-002	  2.66041E-002	  2.85735E-002	  2.72799E-002	  2.79332E-002	  2.60886E-002	  2.49799E-002	  2.62080E-002	  2.70657E-002	
  2.81600E-001	  2.38037E-002	  2.69467E-002	  2.41596E-002	  2.29198E-002	  2.41903E-002	  2.05027E-002	  2.17748E-002	  2.40449E-002	  2.58561E-002	  2.33419E-002	  2.43005E-002	
  3.07200E-001	  2.17912E-002	  2.09755E-002	  2.30595E-002	  2.08121E-002	  2.17388E-002	  2.15073E-002	  2.06010E-002	  2.13970E-002	  2.41202E-002	  2.22147E-002	  2.14855E-002	
  3.32800E-001	  2.06057E-002	  2.11680E-002	  2.13829E-002	  2.09167E-002	  2.06577E-002	  2.19118E-002	  2.31224E-002	  1.91408E-002	  1.70212E-002	  2.03465E-002	  2.03893E-002	
  3.58400E-001	  1.86292E-002	  1.84228E-002	  1.94294E-002	  1.78742E-002	  1.91594E-002	  1.79096E-002	  2.13189E-002	  1.82117E-002	  1.93237E-002	  1.85867E-002	  1.60555E-002	
  3.84000E-001	  1.67992E-002	  1.65977E-002	  1.65297E-002	  1.62521E-002	  1.65881E-002	  1.73255E-002	  1.73486E-002	  1.67824E-002	  1.71370E-002	  1.64027E-002	  1.70280E-002	
  4.09600E-001	  1.52521E-002	  1.59055E-002	  1.49307E-002	  1.49152E-002	  1.48270E-002	  1.52105E-002	  1.58584E-002	  1.53658E-002	  1.44157E-002	  1.56363E-002	  1.54564E-002	
  4.60800E-001	  1.26321E-002	  1.22871E-002	  1.38395E-002	  1.30835E-002	  1.20289E-002	  1.29348E-002	  1.25377E-002	  1.13843E-002	  1.29791E-002	  1.28399E-002	  1.24060E-002	
  5.12000E-001	  1.04514E-002	  1.16628E-002	  9.39828E-003	  1.10786E-002	  9.37602E-003	  1.02584E-002	  1.08227E-002	  1.06517E-002	  1.12980E-002	  9.09658E-003	  1.08705E-002	
  5.63200E-001	  8.66376E-003	  9.49794E-003	  1.03539E-002	  6.71971E-003	  9.69441E-003	  8.57870E-003	  8.07894E-003	  8.37819E-003	  8.76028E-003	  8.21774E-003	  8.35778E-003	
  6.14400E-001	  7.46444E-003	  6.50118E-003	  7.86705E-003	  7.83011E-003	  7.98790E-003	  7.40074E-003	  8.22207E-003	  6.25153E-003	  7.84562E-003	  6.91068E-003	  7.82750E-003	
  6.65600E-001	  6.01079E-003	  5.63742E-003	  6.46915E-003	  5.08043E-003	  5.65984E-003	  7.22693E-003	  6.25318E-003	  4.92488E-003	  6.45776E-003	  6.36955E-003	  6.02874E-003	
  7.16800E-001	  5.58454E-003	  4.49496E-003	  5.49498E-003	  5.77978E-003	  5.97325E-003	  6.85091E-003	  6.46530E-003	  4.41634E-003	  5.64007E-003	  5.65209E-003	  5.07770E-003	
  7.68000E-001	  4.30973E-003	  4.35626E-003	  4.35070E-003	  4.14235E-003	  4.65941E-003	  5.28748E-003	  4.54724E-003	  1.90052E-003	  3.78870E-003	  3.72278E-003	  6.34183E-003	
  8.19200E-001	  3.59760E-003	  3.40186E-003	  3.53708E-003	  3.37091E-003	  4.05468E-003	  3.70333E-003	  2.79780E-003	  3.50343E-003	  3.90285E-003	  3.64916E-003	  4.05495E-003	
  9.21600E-001	  2.65278E-003	  2.56057E-003	  1.86085E-003	  3.15801E-003	  4.32014E-003	  3.26370E-003	  2.54595E-003	  2.38662E-003	  2.68469E-003	  1.02619E-003	  2.72108E-003	
  1.02400E+000	  2.12814E-003	  2.72097E-003	  1.45886E-003	  2.37402E-003	  2.21652E-003	  2.60339E-003	  1.51593E-003	  2.28048E-003	  3.16457E-003	  1.06256E-003	  1.88408E-003	
  1.12640E+000	  1.53890E-003	  2.06001E-003	  1.39308E-003	  2.30713E-003	  2.44762E-003	  1.84496E-003	  1.64951E-003	  2.81820E-004	  1.10001E-003	  1.80734E-003	  4.97509E-004	
  1.22880E+000	  1.07756E-003	  9.70529E-004	  1.03660E-003	  2.17486E-003	  8.81042E-004	  1.02642E-003	  5.56624E-004	  1.09706E-003	  1.39116E-003	  1.13459E-003	  5.06672E-004	
  1.33120E+000	  8.05443E-004	  1.93001E-004	  9.73128E-004	  5.78593E-004	  1.06062E-003	  6.64209E-004	  8.23255E-004	  1.15456E-003	  2.11089E-003	 -1.98731E-004	  6.94915E-004	
  1.43360E+000	  9.27805E-004	 -3.01447E-004	  6.39945E-004	  8.90842E-004	  2.06111E-003	  1.92769E-003	  2.04179E-004	  9.65780E-004	  1.24554E-003	  3.74185E-004	  1.27022E-003	
  1.53600E+000	  8.15166E-004	  1.00852E-004	  1.65034E-003	 -9.15730E-005	  1.01765E-003	  1.89573E-003	  1.26063E-003	  5.27863E-004	  1.02584E-003	  1.28257E-003	 -5.18249E-004	
  1.63840E+000	  4.46573E-004	 -1.14656E-004	  1.64124E-003	  6.49644E-004	  7.65854E-005	  1.08718E-003	 -2.87207E-004	  4.77415E-004	  1.25259E-003	  6.31179E-005	 -3.80175E-004	
  1.84320E+000	 -3.48198E-005	  3.29854E-004	 -1.84462E-004	 -6.62913E-004	 -9.57812E-005	 -2.43432E-004	 -5.18557E-005	  1.06090E-003	  5.20899E-004	 -1.55989E-003	  5.38478E-004	
  2.04800E+000	  1.90654E-004	 -6.47616E-004	  9.77501E-004	 -4.12337E-004	 -4.41565E-005	 -4.46477E-004	 -1.67071E-004	  7.89075E-004	  8.53629E-004	  3.76085E-004	  6.27908E-004	
  2.25280E+000	  1.58493E-004	 -1.13239E-003	  9.55772E-004	 -7.11012E-005	  7.72199E-004	 -3.37787E-004	 -2.47749E-004	  4.22879E-004	  9.15896E-005	  5.36423E-004	  5.95095E-004	
  2.45760E+000	  3.74636E-004	  2.34885E-004	 -4.20389E-004	 -3.87373E-005	  4.72163E-004	  1.78893E-004	 -3.85333E-004	  1.36392E-003	  1.57193E-003	  1.12594E-004	  6.56430E-004	
  2.66240E+000	  2.28639E-004	  6.54849E-004	 -2.72611E-004	 -2.27916E-004	 -2.57211E-004	  9.93863E-005	  4.44555E-004	  6.21053E-004	  7.07729E-004	  8.74702E-005	  4.29085E-004	
  2.86720E+000	  1.00857E-004	  7.50162E-004	 -4.39280E-004	 -6.38246E-004	  5.07446E-004	 -2.38111E-004	 -1.85742E-004	  1.19662E-004	  2.40623E-004	 -1.49608E-004	  1.04166E-003	
  3.07200E+000	  7.79380E-005	  2.15299E-004	 -4.05075E-004	  2.26686E-004	  4.26530E-004	 -2.39397E-004	  1.08328E-004	 -4.39853E-005	  2.77731E-004	  5.20211E-005	  1.61242E-004	
  3.27680E+000	 -1.14428E-004	  1.79425E-004	 -4.82015E-004	 -3.88721E-004	  5.16549E-004	  7.90913E-005	 -4.62534E-004	  2.94684E-004	 -8.26031E-005	 -6.16315E-004	 -1.81842E-004	
  3.68640E+000	 -6.39435E-006	  6.77504E-004	 -4.25761E-004	 -5.68090E-004	 -1.48637E-004	  1.35309E-005	 -2.37213E-005	  4.48164E-004	  1.01923E-004	 -2.06438E-004	  6.75829E-005	
  4.09600E+000	 -1.99684E-004	 -1.39936E-004	  2.60182E-004	 -5.11861E-004	 -6.77594E-005	  1.01716E-004	 -6.90828E-004	 -8.82347E-005	 -8.15249E-004	 -2.93889E-004	  2.49021E-004	
  4.50560E+000	 -1.72992E-004	  9.74076E-005	 -1.40125E-004	  3.65565E-006	  5.30725E-004	 -1.98577E-004	 -1.29245E-004	 -3.11322E-004	 -2.69036E-004	 -1.18957E-003	 -1.23837E-004	
  4.91520E+000	 -1.65361E-005	 -1.03612E-003	 -3.30622E-004	  3.65014E-004	  1.53558E-005	 -2.81748E-004	  9.78399E-004	  2.56479E-004	  7.58660E-005	 -4.96914E-004	  2.88929E-004	
  5.32480E+000	 -5.14791E-005	 -1.12039E-003	 -2.24201E-004	  2.95346E-004	 -2.45791E-004	  1.91831E-004	  1.12910E-004	  7.36410E-004	 -6.86543E-004	 -4.05390E-005	  4.66181E-004	
  5.73440E+000	 -5.75485E-005	 -1.94478E-004	 -7.94121E-004	 -3.30287E-004	 -2.04628E-004	  3.33448E-004	  8.04900E-004	 -2.26602E-004	 -4.24475E-005	 -3.38723E-004	  4.17453E-004	
  6.14400E+000	 -8.77067E-005	  3.27366E-004	 -1.01585E-003	 -2.10454E-004	 -1.19751E-004	 -3.45332E-005	 -1.39835E-004	 -2.70715E-004	  2.11583E-004	  8.00691E-006	  3.67113E-004	
  6.55360E+000	 -1.10984E-005	  7.60328E-004	 -9.92274E-004	  1.76597E-004	 -2.17312E-004	 -2.94447E-004	  3.91145E-006	 -3.87037E-004	  3.18833E-004	  2.84820E-004	  2.35597E-004	
  7.37280E+000	  1.61219E-004	  4.34164E-004	  2.68316E-005	 -3.46546E-004	 -2.86082E-006	 -4.11938E-005	  5.56650E-004	 -1.82486E-004	  8.09431E-005	  3.83144E-005	  1.04837E-003	
  8.19200E+000	  7.28600E-005	  1.44294E-004	 -2.25796E-004	  4.03157E-004	  4.19394E-004	 -3.97078E-004	  1.58717E-004	 -2.63211E-004	 -2.52925E-005	 -2.26726E-004	  7.41143E-004	
  9.01120E+000	  3.81384E-005	 -1.99869E-004	  4.33947E-005	  2.80327E-004	  3.52985E-004	 -2.44015E-004	  4.77336E-004	 -1.03561E-004	  9.04739E-005	 -3.99414E-004	  8.37259E-005	
  9.83040E+000	  1.94789E-004	  6.00502E-004	  1.68768E-004	  4.58377E-004	  4.92542E-004	  4.80698E-004	 -4.24144E-004	  2.44249E-004	  8.21243E-006	 -6.78690E-004	  5.97379E-004	
  1.06496E+001	  1.72560E-004	  6.39643E-004	  2.86587E-004	  3.33242E-004	  6.06202E-004	 -4.71451E-004	  2.97200E-004	 -2.96470E-004	 -3.31998E-004	  1.25630E-004	  5.37013E-004	
  1.14688E+001	 -2.03658E-005	  7.50678E-004	 -3.06855E-004	 -1.38493E-004	  2.99262E-004	 -2.07593E-004	  5.71352E-004	 -1.70707E-004	 -4.96135E-004	 -1.94422E-004	 -3.10745E-004	
  1.22880E+001	 -4.66543E-005	 -5.40306E-005	 -1.85736E-004	 -3.80859E-004	 -3.86647E-005	 -2.94018E-004	 -1.67366E-004	  8.79698E-005	 -5.17688E-004	  9.90908E-005	  9.84759E-004	
  1.31072E+001	 -2.60102E-005	  1.27472E-004	  2.12185E-004	 -2.65950E-004	 -2.77968E-004	 -3.75078E-004	 -2.58394E-004	  6.33017E-005	 -2.82956E-004	  2.98295E-004	  4.98991E-004	
  1.47456E+001	 -7.59199E-005	  1.00274E-004	 -5.21943E-004	 -2.13342E-004	 -3.36104E-004	 -2.42835E-004	  2.28077E-005	  1.80897E-004	  1.72197E-004	  7.76550E-005	  1.19486E-006	
  1.63840E+001	 -5.53926E-005	  1.27049E-004	 -3.85303E-004	  7.01556E-005	 -2.95103E-004	  5.65852E-005	  2.97174E-004	 -7.43051E-005	  4.56798E-005	 -1.19845E-007	 -3.95739E-004	
  1.80224E+001	  8.16064E-005	 -1.40611E-004	  1.27149E-004	  4.63422E-004	 -1.62808E-004	 -2.59573E-004	  6.41447E-005	  7.02641E-004	  3.58046E-005	 -1.16992E-004	  1.02887E-004	
  1.96608E+001	  4.16078E-006	  4.10256E-004	 -1.84466E-004	 -3.21703E-005	 -3.55892E-004	 -9.76250E-005	  4.35925E-004	  8.64284E-005	  8.06407E-005	 -5.25563E-004	  2.24074E-004	
  2.12992E+001	 -7.26878E-005	 -2.36999E-004	 -6.48698E-004	 -2.39447E-005	  3.41537E-004	 -1.31522E-004	  4.84598E-004	 -4.90208E-004	 -2.91190E-004	 -2.51945E-004	  5.21494E-004	
  2.29376E+001	 -2.24578E-004	 -7.40624E-005	 -6.78010E-004	 -4.92124E-004	 -2.75094E-004	 -2.30471E-004	 -5.97276E-004	 -7.36575E-005	  2.26144E-004	 -1.65097E-004	  1.13869E-004	
  2.45760E+001	 -5.63109E-005	  2.18490E-004	  6.13239E-005	  1.57845E-004	 -5.01992E-004	  1.66216E-004	 -3.33863E-004	 -1.42422E-005	 -2.59015E-004	 -2.12710E-004	  1.54839E-004	
  2.62144E+001	  1.01700E-004	  2.17271E-004	 -1.91632E-004	  2.10163E-004	 -6.40129E-005	  1.57930E-004	  2.11062E-004	  1.42598E-004	  9.74239E-005	 -1.52031E-004	  3.88229E-004	
  2.94912E+001	  2.04005E-005	 -1.58851E-004	  3.22053E-004	 -4.17568E-005	 -1.84338E-004	  1.49705E-005	 -1.89601E-004	  9.80726E-005	  1.96176E-004	  1.30768E-004	  1.65104E-005	
  3.27680E+001	 -4.11472E-005	 -2.86948E-005	 -4.01076E-004	 -2.13280E-004	  1.84922E-004	  3.73937E-005	 -7.87870E-005	  1.24382E-004	  2.46443E-004	 -2.54965E-004	 -2.78097E-005	
  3.60448E+001	 -9.32482E-005	 -3.75351E-005	 -3.74981E-005	  8.32224E-006	 -1.01788E-004	 -1.54837E-004	 -1.94078E-004	  1.45391E-004	 -2.14631E-004	 -2.78021E-004	 -6.78059E-005	
  3.93216E+001	  4.99109E-005	 -2.63000E-004	 -1.95055E-004	 -1.76039E-004	 -3.95801E-005	  3.35231E-004	  4.30302E-004	  1.18383E-004	  8.22833E-005	  5.30820E-005	  1.53501E-004	
  4.25984E+001	  9.96098E-005	 -6.35610E-006	  8.17618E-005	  1.87988E-004	 -1.47411E-004	  1.45255E-004	 -1.34892E-004	  5.43561E-004	  3.21959E-004	  2.22080E-004	 -2.17846E-004	
  4.58752E+001	 -6.46266E-005	 -6.50703E-005	 -5.89054E-005	  7.70150E-005	 -5.07288E-005	 -2.84057E-004	 -3.34351E-004	 -4.19547E-005	 -4.45325E-005	  4.13706E-004	 -2.57388E-004	
  4.91520E+001	 -5.54878E-006	  2.63606E-004	 -3.94421E-004	 -1.91219E-004	 -8.69221E-005	  1.00975E-004	  4.94196E-004	  6.06789E-005	  3.03542E-005	 -1.20018E-004	 -2.12719E-004	
  5.24288E+001	 -2.41678E-005	  1.10215E-005	 -8.31235E-005	 -2.46696E-005	 -7.92592E-006	 -8.13847E-006	  2.44201E-004	 -3.32942E-004	 -9.44852E-005	  5.98392E-005	 -5.45456E-006	
  5.89824E+001	 -3.39451E-005	 -3.95001E-005	 -2.89584E-004	 -1.64754E-004	  2.96306E-005	 -3.02630E-005	 -2.02432E-005	  2.88532E-004	  1.95866E-006	 -3.28666E-006	 -1.11942E-004	
  6.55360E+001	  5.74773E-005	  2.83277E-005	  1.48974E-004	  8.21278E-005	  6.77831E-005	  1.83057E-004	 -9.93239E-005	 -4.16660E-005	  6.53732E-005	  4.15827E-005	  9.85374E-005	
  7.20896E+001	  6.39051E-005	  1.94105E-004	 -1.31633E-004	  1.25431E-004	  1.68090E-005	  2.00669E-005	  8.25355E-005	  3.04054E-004	  8.46078E-005	  3.92931E-005	 -9.62180E-005	
  7.86432E+001	 -4.79846E-006	  2.61563E-004	  9.99260E-006	  5.89759E-005	 -1.41253E-004	  1.94934E-004	 -4.61069E-005	 -2.35553E-004	 -1.48139E-004	  1.14907E-004	 -1.17305E-004	
  8.51968E+001	 -9.50124E-005	 -2.33979E-004	  2.39236E-004	 -1.90248E-005	 -2.07415E-004	 -9.95991E-005	 -8.61929E-005	 -1.61673E-004	 -1.61465E-005	 -3.03159E-004	 -6.21701E-005	
  9.17504E+001	  4.07436E-005	  4.81657E-005	 -9.92319E-005	  7.20057E-005	  5.75047E-005	  2.22137E-004	 -4.97263E-005	  8.99436E-005	  2.13459E-004	  1.79326E-004	 -3.26148E-004	
  9.83040E+001	  2.79912E-005	  4.39813E-005	 -1.45458E-004	 -1.36194E-004	  2.21897E-004	  9.81130E-005	 -2.16937E-004	  1.59692E-004	  1.07264E-004	  7.13152E-005	  7.62380E-005	
  1.04858E+002	 -1.10111E-005	 -8.98559E-005	  2.40248E-005	 -6.56629E-006	  2.64791E-006	 -2.26407E-004	 -8.56963E-005	  4.80486E-005	 -1.04065E-004	  2.69121E-004	  5.86368E-005	
  1.17965E+002	  2.47288E-005	  9.23134E-005	  4.50075E-006	  5.95959E-005	  1.40115E-004	  1.41951E-004	 -1.71547E-004	  1.14652E-004	 -8.70891E-005	 -1.11317E-004	  6.41134E-005	
  1.31072E+002	  4.22016E-005	 -1.09541E-005	 -5.08002E-005	 -1.12278E-004	  1.12657E-004	  5.07587E-005	 -7.86465E-005	  2.06019E-005	  2.56587E-004	 -1.97693E-005	  2.53859E-004	
  1.44179E+002	  8.50005E-005	  6.70107E-005	  1.58238E-004	 -7.97036E-005	  3.04829E-005	  1.32508E-005	  9.27725E-005	  4.18877E-005	  8.47675E-005	  2.71975E-004	  1.69323E-004	
  1.57286E+002	  4.11383E-006	  1.39880E-005	  1.61817E-004	 -7.71041E-005	 -2.51156E-006	  3.98064E-005	 -3.32865E-005	 -1.25793E-004	  1.52245E-004	  4.45340E-005	 -1.32557E-004	
  1.70394E+002	 -1.63738E-005	 -4.97767E-005	 -4.75909E-005	  9.81664E-005	 -1.05848E-004	 -5.01848E-005	 -1.07155E-004	  1.52575E-004	 -1.06594E-005	  1.15509E-004	 -1.58773E-004	
  1.83501E+002	 -5.51239E-006	 -8.84646E-005	 -1.00531E-004	 -1.29013E-004	  1.25448E-004	 -6.85544E-005	  1.13836E-004	  1.54206E-005	 -7.34228E-006	  3.80834E-005	  4.59940E-005	
  1.96608E+002	 -5.04925E-005	 -1.93399E-004	 -7.35058E-005	 -4.36706E-005	 -2.57443E-005	 -1.01424E-004	  1.46914E-004	  9.48565E-005	 -1.19243E-004	 -9.96858E-005	 -9.00223E-005	
  2.09715E+002	 -2.66660E-005	 -1.12543E-004	 -2.22170E-004	  1.59999E-004	 -1.58377E-004	 -3.60240E-005	  7.60888E-006	  1.00326E-004	 -6.01622E-005	  4.39490E-006	  5.02878E-005	
  2.35930E+002	 -3.09356E-005	 -1.34949E-004	  1.32610E-004	 -3.29501E-006	 -4.50962E-006	  4.84350E-005	 -1.03728E-004	 -5.05007E-005	 -5.65951E-005	 -9.61098E-005	 -4.07134E-005	
  2.62144E+002	  1.52694E-005	  5.78010E-005	 -1.32120E-004	  2.51392E-005	 -2.65639E-005	  1.18455E-004	  4.32477E-005	  6.57950E-005	  1.53356E-005	 -6.02299E-005	  4.58350E-005	
  2.88358E+002	 -2.22448E-005	 -1.01907E-005	 -6.83103E-005	 -4.85065E-005	 -2.60610E-005	  7.23171E-005	 -7.21435E-005	 -7.65014E-005	 -5.96996E-006	  3.94320E-006	  8.97460E-006	
  3.14573E+002	  1.28238E-005	  1.45673E-004	 -1.14827E-004	  1.46467E-004	 -1.02719E-004	  4.87156E-005	  1.31352E-004	  5.30590E-005	 -3.22629E-005	 -2.92959E-005	 -1.17924E-004	
  3.40787E+002	  4.88599E-006	  8.56762E-005	  1.55412E-004	  8.84514E-005	  3.29857E-005	 -6.91508E-005	 -5.08727E-005	  7.77810E-006	 -5.37580E-005	 -1.23277E-004	 -2.43845E-005	
  3.67002E+002	  5.10071E-005	  4.45475E-005	 -1.01112E-005	  3.69288E-006	 -2.77812E-006	  7.54472E-005	  1.08141E-004	  7.56182E-005	  1.43736E-005	  1.53570E-004	  4.75700E-005	
  3.93216E+002	 -2.70701E-006	  1.14369E-004	  6.64909E-005	 -2.18988E-005	 -8.17210E-005	 -2.00683E-005	  1.29769E-004	 -9.90378E-005	 -2.67099E-005	 -1.97604E-005	 -6.85022E-005	
  4.19430E+002	  3.24483E-006	  6.87415E-005	 -2.07191E-005	 -1.89315E-005	  2.88489E-005	 -7.07422E-005	  2.61219E-005	 -4.21897E-005	  2.38007E-005	 -6.29187E-005	  1.00437E-004	
  4.71859E+002	  2.13508E-006	 -1.01151E-004	  4.62784E-005	 -5.01851E-005	  8.71633E-005	  1.37021E-005	 -5.99256E-005	  6.98819E-005	 -8.63039E-006	 -4.56060E-006	  2.87777E-005	
  5.24288E+002	 -1.53016E-005	 -3.59761E-005	 -6.38513E-005	 -5.96131E-005	  7.17760E-005	  5.87776E-006	 -4.79787E-005	  7.52030E-005	 -4.35590E-005	 -1.66982E-006	 -5.32248E-005	
  5.76717E+002	 -3.46092E-005	 -7.98843E-005	 -1.23261E-005	  4.83497E-005	 -4.09702E-005	 -1.06552E-004	  3.38926E-005	 -6.89464E-005	 -4.24821E-005	 -3.35938E-005	 -4.35791E-005	
  6.29146E+002	 -2.51232E-005	 -9.66127E-007	 -5.35280E-005	  5.71609E-006	  4.50892E-005	 -6.31066E-005	 -1.01282E-004	 -8.28929E-005	  5.29940E-005	 -8.21210E-005	  2.88651E-005	
  6.81574E+002	 -7.32019E-006	 -8.50999E-006	 -7.64225E-005	  2.44640E-005	 -4.87434E-005	  1.14041E-006	  1.40690E-005	  3.70396E-005	  3.68449E-005	 -1.40562E-005	 -3.90278E-005	
  7.34003E+002	  1.31267E-005	  8.49772E-005	  9.30814E-005	 -7.50600E-005	  4.84310E-005	  2.25320E-005	  1.28471E-005	 -7.68812E-005	 -1.20377E-005	  4.87638E-005	 -1.53868E-005	
  7.86432E+002	  1.38064E-005	  1.37649E-005	  8.41799E-005	 -7.23245E-006	  9.11871E-005	  7.35879E-005	 -3.09982E-005	 -2.75946E-005	  4.74038E-006	 -1.27539E-005	 -5.08168E-005	
  8.38861E+002	 -1.14495E-005	 -4.99887E-005	 -6.51263E-005	 -2.29789E-005	  4.02013E-005	  4.50856E-005	 -2.41130E-005	  1.33720E-005	 -4.39786E-005	 -3.88236E-005	  3.18552E-005	
  9.43718E+002	  3.99500E-006	 -3.26765E-005	 -3.30402E-005	  5.12778E-006	  3.46535E-005	  5.86813E-005	 -3.12392E-005	 -3.60625E-005	  5.40451E-005	 -6.64828E-006	  2.71089E-005	
  1.04858E+003	 -1.38831E-005	  6.45736E-005	  3.45513E-005	  5.45299E-006	 -6.61853E-005	 -2.71444E-005	 -2.29453E-005	 -1.01124E-004	  3.51001E-005	 -5.43065E-005	 -6.80340E-006	
  1.15343E+003	 -1.07891E-005	 -1.00057E-005	  7.28004E-005	 -4.91766E-005	  7.99022E-007	  1.93706E-005	 -4.25524E-005	  6.33473E-005	 -6.39382E-005	 -4.42990E-005	 -5.42360E-005	
  1.25829E+003	 -1.96262E-005	 -5.14741E-005	  3.65048E-005	  5.10594E-005	 -1.95734E-005	 -2.16003E-005	 -7.95230E-006	 -7.90557E-005	 -9.78356E-005	 -4.67495E-005	  4.04145E-005	
  1.36315E+003	  1.55402E-005	  7.35119E-006	 -2.39628E-005	  4.28291E-005	  4.46629E-005	 -9.97085E-007	  5.57191E-005	  1.89878E-005	  3.54915E-005	  2.41682E-005	 -4.88484E-005	
  1.46801E+003	 -1.10601E-005	  2.54970E-005	 -3.43856E-005	  3.06382E-005	 -5.19656E-005	 -5.91319E-005	 -9.40724E-006	 -2.05538E-005	  4.36226E-005	  3.62922E-005	 -7.12068E-005	
  1.57286E+003	  5.89675E-006	  3.86116E-006	  7.80247E-005	 -1.54193E-005	 -1.74275E-005	 -2.94008E-005	  1.79193E-005	 -7.59120E-005	  2.88226E-005	 -3.37592E-005	  1.02259E-004	
  1.67772E+003	  9.25201E-006	  5.62851E-006	  2.86519E-005	  3.90893E-005	  1.18184E-005	 -1.39843E-005	  3.52091E-005	 -1.06823E-005	 -4.43357E-005	 -9.50517E-006	  5.06304E-005	
  1.88744E+003	 -5.75152E-006	 -3.09302E-006	 -3.71222E-005	  1.89830E-005	  3.00009E-005	 -4.84832E-005	  5.13996E-006	 -1.23985E-005	 -2.31915E-005	 -3.09850E-007	  1.29594E-005	
  2.09715E+003	 -1.65082E-005	 -3.07463E-005	 -4.36164E-005	  1.33341E-005	 -3.75939E-005	 -2.36411E-005	  1.15379E-005	 -9.58342E-006	 -2.14382E-005	 -5.88496E-006	 -1.74501E-005	
  2.30687E+003	  7.37745E-006	  2.53096E-005	  5.05999E-005	  8.43053E-006	  6.84715E-005	 -1.91177E-005	 -2.02577E-005	  3.98714E-005	 -1.99193E-005	 -2.05286E-005	 -3.90851E-005	
  2.51658E+003	  1.12948E-005	 -1.00801E-005	  5.96062E-006	 -3.38048E-006	  5.87053E-006	  5.69662E-005	  4.31493E-005	  8.19507E-006	  2.83834E-005	 -7.23090E-007	 -2.13934E-005	
  2.72630E+003	  2.85730E-006	  9.58055E-006	 -4.88856E-006	 -1.26511E-005	  4.02856E-005	 -3.19649E-006	 -3.27432E-005	 -8.49446E-006	 -1.42633E-005	  4.65392E-005	  8.40471E-006	
  2.93601E+003	  8.60507E-006	  6.86842E-006	  3.25005E-005	  3.79528E-006	  2.34156E-005	 -5.17008E-005	  3.44667E-005	  3.89008E-005	  3.40393E-005	 -2.42203E-005	 -1.20149E-005	
  3.14573E+003	 -3.33375E-005	  1.29671E-005	 -5.85794E-005	 -3.23309E-005	 -5.70912E-005	 -3.91439E-005	 -4.07640E-005	 -2.92005E-005	  2.78493E-006	 -7.28732E-005	 -1.91436E-005	
  3.35544E+003	 -1.17671E-005	 -2.58948E-005	 -2.09784E-005	 -4.31566E-005	 -6.17486E-005	  2.40811E-005	 -6.60756E-006	 -8.19735E-006	  2.42881E-005	  6.60405E-006	 -6.06062E-006	
  3.77487E+003	 -3.79975E-006	 -1.16813E-005	 -2.66720E-005	 -1.26393E-005	 -1.27159E-005	 -1.35747E-005	 -1.20130E-005	  2.05150E-005	  3.12935E-005	  1.78623E-005	 -1.83723E-005	
  4.19430E+003	  1.14382E-005	  1.53181E-005	 -4.15248E-005	  2.12633E-005	  4.11799E-006	  9.79472E-006	  5.03411E-005	  1.34504E-006	  4.30336E-005	  1.45621E-007	  1.05479E-005	
  4.61373E+003	 -8.83681E-006	 -3.29288E-006	 -1.66078E-005	  2.91258E-005	  1.22267E-005	 -9.42046E-006	  1.27987E-005	 -5.21692E-005	 -3.50438E-005	 -2.26071E-005	 -3.37806E-006	
  5.03317E+003	  1.93073E-007	  3.53088E-005	  1.11602E-005	 -3.90158E-005	  2.34132E-005	  1.19635E-005	 -1.23173E-005	 -1.09837E-005	 -9.94631E-006	  9.70352E-006	 -1.73552E-005	
  5.45260E+003	 -1.50487E-005	 -2.03824E-005	 -1.37184E-005	 -3.18606E-005	 -7.68736E-006	 -1.89999E-005	 -2.67964E-005	  1.31629E-006	 -1.83118E-005	 -9.23977E-006	 -4.80694E-006	
  5.87203E+003	  5.99352E-006	 -1.52792E-005	 -8.11719E-006	 -5.78248E-006	 -3.37001E-005	  1.82306E-005	  8.21620E-006	  5.48681E-005	  6.80401E-007	  4.18533E-006	  3.66335E-005	
  6.29146E+003	  1.50367E-006	 -1.28257E-005	  3.18055E-006	  2.22950E-005	 -8.72453E-006	 -4.09062E-005	 -3.55404E-005	  3.30725E-005	  5.00216E-005	 -1.48525E-005	  1.93164E-005	
  6.71089E+003	  1.70570E-005	  9.98466E-006	  2.11379E-005	  1.47630E-005	 -1.17028E-005	 -1.84442E-005	  4.49574E-005	  3.06748E-005	  4.48943E-005	  5.93103E-006	  2.83738E-005	
  7.54975E+003	 -7.65888E-006	  7.95717E-006	  3.46740E-005	 -8.08584E-005	 -1.63549E-005	 -2.40416E-005	 -3.06791E-006	 -1.96123E-005	 -9.51723E-006	  7.41040E-006	  2.68220E-005	
  8.38861E+003	  2.18009E-006	 -8.27063E-006	  2.30996E-005	 -2.51608E-005	 -1.42352E-005	  5.35448E-005	 -3.98214E-005	  4.48339E-006	  6.63825E-006	  2.12085E-005	  3.14340E-007	
  9.22747E+003	 -2.64012E-007	  1.10701E-005	  1.09780E-005	 -1.66296E-005	  9.16971E-006	 -3.26882E-006	  4.24593E-005	  2.53790E-006	 -3.73825E-005	 -3.67537E-006	 -1.78987E-005	
  1.00663E+004	 -1.12191E-005	  1.70948E-005	  1.22950E-005	 -5.69823E-005	 -1.12593E-006	 -1.55885E-005	 -4.35935E-005	 -2.77782E-005	  1.29631E-005	 -3.81459E-005	  2.86701E-005	
  1.09052E+004	  4.35808E-006	 -2.86567E-006	 -2.90892E-005	  2.87762E-005	  1.49756E-005	  1.40609E-005	  9.03917E-006	  6.59577E-006	  1.83068E-005	 -1.49493E-005	 -1.26948E-006	
  1.17441E+004	 -6.11289E-006	 -1.40978E-005	 -2.57595E-005	 -5.02558E-005	  2.45185E-005	 -4.15894E-005	  1.32506E-005	  2.27662E-005	 -6.60333E-007	  1.49851E-005	 -4.28635E-006	
  1.25829E+004	  7.32903E-006	 -1.86166E-005	 -8.08475E-006	  4.67718E-005	  1.62579E-006	  5.86597E-005	 -2.37090E-005	 -1.85435E-005	 -1.91242E-005	  4.02232E-005	  1.40878E-005	

"Count Rate"
       0.11719	      89.56936	       0.00000	       0.00000	       0.00000
       0.23438	      89.88465	       0.00000	       0.00000	       0.00000
       0.35156	      90.36185	       0.00000	       0.00000	       0.00000
       0.46875	      88.46156	       0.00000	       0.00000	       0.00000
       0.58594	      94.74191	       0.00000	       0.00000	       0.00000
       0.70313	      96.06274	       0.00000	       0.00000	       0.00000
       0.82031	      93.48924	       0.00000	       0.00000	       0.00000
       0.93750	      89.02399	       0.00000	       0.00000	       0.00000
       1.05469	      89.77387	       0.00000	       0.00000	       0.00000
       1.17188	      93.97497	       0.00000	       0.00000	       0.00000
       1.28906	      94.61408	       0.00000	       0.00000	       0.00000
       1.40625	      90.95836	       0.00000	       0.00000	       0.00000
       1.52344	      92.90126	       0.00000	       0.00000	       0.00000
       1.64063	      92.24511	       0.00000	       0.00000	       0.00000
       1.75781	      93.26768	       0.00000	       0.00000	       0.00000
       1.87500	      94.29026	       0.00000	       0.00000	       0.00000
       1.99219	      96.42064	       0.00000	       0.00000	       0.00000
       2.10938	      92.94387	       0.00000	       0.00000	       0.00000
       2.22656	      93.33585	       0.00000	       0.00000	       0.00000
       2.34375	      91.43556	       0.00000	       0.00000	       0.00000
       2.46094	      90.09769	       0.00000	       0.00000	       0.00000
       2.57813	      91.35887	       0.00000	       0.00000	       0.00000
       2.69531	      93.36142	       0.00000	       0.00000	       0.00000
       2.81250	      93.34438	       0.00000	       0.00000	       0.00000
       2.92969	      91.52078	       0.00000	       0.00000	       0.00000
       3.04688	      92.99500	       0.00000	       0.00000	       0.00000
       3.16406	      92.75639	       0.00000	       0.00000	       0.00000
       3.28125	      89.04955	       0.00000	       0.00000	       0.00000
       3.39844	      87.05552	       0.00000	       0.00000	       0.00000
       3.51563	      92.69675	       0.00000	       0.00000	       0.00000
       3.63281	      96.30986	       0.00000	       0.00000	       0.00000
       3.75000	      90.43855	       0.00000	       0.00000	       0.00000
       3.86719	      92.99500	       0.00000	       0.00000	       0.00000
       3.98438	      88.41044	       0.00000	       0.00000	       0.00000
       4.10156	      94.46922	       0.00000	       0.00000	       0.00000
       4.21875	      91.10323	       0.00000	       0.00000	       0.00000
       4.33594	      91.26514	       0.00000	       0.00000	       0.00000
       4.45313	      91.49522	       0.00000	       0.00000	       0.00000
       4.57031	      91.28218	       0.00000	       0.00000	       0.00000
       4.68750	      98.31241	       0.00000	       0.00000	       0.00000
       4.80469	      92.22807	       0.00000	       0.00000	       0.00000
       4.92188	      93.61707	       0.00000	       0.00000	       0.00000
       5.03906	      90.45560	       0.00000	       0.00000	       0.00000
       5.15625	      91.02654	       0.00000	       0.00000	       0.00000
       5.27344	      93.84715	       0.00000	       0.00000	       0.00000
       5.39063	      90.77941	       0.00000	       0.00000	       0.00000
       5.50781	      89.96987	       0.00000	       0.00000	       0.00000
       5.62500	      91.92129	       0.00000	       0.00000	       0.00000
       5.74219	      89.03251	       0.00000	       0.00000	       0.00000
       5.85938	      89.97839	       0.00000	       0.00000	       0.00000
       5.97656	      89.79944	       0.00000	       0.00000	       0.00000
       6.09375	      94.88676	       0.00000	       0.00000	       0.00000
       6.21094	      92.82457	       0.00000	       0.00000	       0.00000
       6.32813	      90.14030	       0.00000	       0.00000	       0.00000
       6.44531	      90.17439	       0.00000	       0.00000	       0.00000
       6.56250	      91.92129	       0.00000	       0.00000	       0.00000
       6.67969	      90.76237	       0.00000	       0.00000	       0.00000
       6.79688	      91.83607	       0.00000	       0.00000	       0.00000
       6.91406	      95.43214	       0.00000	       0.00000	       0.00000
       7.03125	      94.08575	       0.00000	       0.00000	       0.00000
       7.14844	      89.86761	       0.00000	       0.00000	       0.00000
       7.26563	      92.44962	       0.00000	       0.00000	       0.00000
       7.38281	      91.27366	       0.00000	       0.00000	       0.00000
       7.50000	      91.06915	       0.00000	       0.00000	       0.00000
       7.61719	      89.65457	       0.00000	       0.00000	       0.00000
       7.73438	      88.14627	       0.00000	       0.00000	       0.00000
       7.85156	      96.25021	       0.00000	       0.00000	       0.00000
       7.96875	      93.54037	       0.00000	       0.00000	       0.00000
       8.08594	      90.94984	       0.00000	       0.00000	       0.00000
       8.20313	      96.11386	       0.00000	       0.00000	       0.00000
       8.32031	      92.33884	       0.00000	       0.00000	       0.00000
       8.43750	      88.37635	       0.00000	       0.00000	       0.00000
       8.55469	      90.78793	       0.00000	       0.00000	       0.00000
       8.67188	      94.10279	       0.00000	       0.00000	       0.00000
       8.78906	      93.65115	       0.00000	       0.00000	       0.00000
       8.90625	      95.33841	       0.00000	       0.00000	       0.00000
       9.02344	      91.11175	       0.00000	       0.00000	       0.00000
       9.14063	      91.79346	       0.00000	       0.00000	       0.00000
       9.25781	      90.43855	       0.00000	       0.00000	       0.00000
       9.37500	      90.03804	       0.00000	       0.00000	       0.00000
       9.49219	      86.93622	       0.00000	       0.00000	       0.00000
       9.60938	      92.64561	       0.00000	       0.00000	       0.00000
       9.72656	      93.54890	       0.00000	       0.00000	       0.00000
       9.84375	      89.12624	       0.00000	       0.00000	       0.00000
       9.96094	      87.35378	       0.00000	       0.00000	       0.00000
      10.07813	      92.60301	       0.00000	       0.00000	       0.00000
      10.19531	      93.30177	       0.00000	       0.00000	       0.00000
      10.31250	      93.55742	       0.00000	       0.00000	       0.00000
      10.42969	      88.27409	       0.00000	       0.00000	       0.00000
      10.54688	      93.32734	       0.00000	       0.00000	       0.00000
      10.66406	      91.52078	       0.00000	       0.00000	       0.00000
      10.78125	      92.97796	       0.00000	       0.00000	       0.00000
      10.89844	      94.18800	       0.00000	       0.00000	       0.00000
      11.01563	      94.39252	       0.00000	       0.00000	       0.00000
      11.13281	      88.76834	       0.00000	       0.00000	       0.00000
      11.25000	      92.05763	       0.00000	       0.00000	       0.00000
      11.36719	      92.28771	       0.00000	       0.00000	       0.00000
      11.48438	      88.87060	       0.00000	       0.00000	       0.00000
      11.60156	      92.71379	       0.00000	       0.00000	       0.00000
      11.71875	      87.53272	       0.00000	       0.00000	       0.00000
      11.83594	      93.01204	       0.00000	       0.00000	       0.00000
      11.95313	      88.59791	       0.00000	       0.00000	       0.00000
      12.07031	      90.63454	       0.00000	       0.00000	       0.00000
      12.18750	      92.73936	       0.00000	       0.00000	       0.00000
      12.30469	      90.71124	       0.00000	       0.00000	       0.00000
      12.42188	      90.41299	       0.00000	       0.00000	       0.00000
      12.53906	      92.58597	       0.00000	       0.00000	       0.00000
      12.65625	      90.89871	       0.00000	       0.00000	       0.00000
      12.77344	      90.30221	       0.00000	       0.00000	       0.00000
      12.89063	      92.04059	       0.00000	       0.00000	       0.00000
      13.00781	      96.65072	       0.00000	       0.00000	       0.00000
      13.12500	      92.96944	       0.00000	       0.00000	       0.00000
      13.24219	      88.76834	       0.00000	       0.00000	       0.00000
      13.35938	      89.89317	       0.00000	       0.00000	       0.00000
      13.47656	      88.73425	       0.00000	       0.00000	       0.00000
      13.59375	      89.19441	       0.00000	       0.00000	       0.00000
      13.71094	      91.66565	       0.00000	       0.00000	       0.00000
      13.82813	      91.65713	       0.00000	       0.00000	       0.00000
      13.94531	      93.03761	       0.00000	       0.00000	       0.00000
      14.06250	      93.47220	       0.00000	       0.00000	       0.00000
      14.17969	      95.44067	       0.00000	       0.00000	       0.00000
      14.29688	      90.49820	       0.00000	       0.00000	       0.00000
      14.41406	      94.80155	       0.00000	       0.00000	       0.00000
      14.53125	      95.15945	       0.00000	       0.00000	       0.00000
      14.64844	      93.09725	       0.00000	       0.00000	       0.00000
      14.76563	      90.31925	       0.00000	       0.00000	       0.00000
      14.88281	      90.89019	       0.00000	       0.00000	       0.00000
      15.00000	      93.68524	       0.00000	       0.00000	       0.00000
      15.11719	      90.44707	       0.00000	       0.00000	       0.00000
      15.23438	      95.38101	       0.00000	       0.00000	       0.00000
      15.35156	      90.18291	       0.00000	       0.00000	       0.00000
      15.46875	      92.33884	       0.00000	       0.00000	       0.00000
      15.58594	      95.77300	       0.00000	       0.00000	       0.00000
      15.70313	      91.54635	       0.00000	       0.00000	       0.00000
      15.82031	      92.80753	       0.00000	       0.00000	       0.00000
      15.93750	      92.29623	       0.00000	       0.00000	       0.00000
      16.05469	      91.06915	       0.00000	       0.00000	       0.00000
      16.17188	      95.97752	       0.00000	       0.00000	       0.00000
      16.28906	      90.87315	       0.00000	       0.00000	       0.00000
      16.40625	      88.96433	       0.00000	       0.00000	       0.00000
      16.52344	      88.25705	       0.00000	       0.00000	       0.00000
      16.64063	      92.79900	       0.00000	       0.00000	       0.00000
      16.75781	      94.09427	       0.00000	       0.00000	       0.00000
      16.87500	      94.35844	       0.00000	       0.00000	       0.00000
      16.99219	      90.87315	       0.00000	       0.00000	       0.00000
      17.10938	      89.67162	       0.00000	       0.00000	       0.00000
      17.22656	      90.12325	       0.00000	       0.00000	       0.00000
      17.34375	      94.61408	       0.00000	       0.00000	       0.00000
      17.46094	      90.58342	       0.00000	       0.00000	       0.00000
      17.57813	      91.61452	       0.00000	       0.00000	       0.00000
      17.69531	      95.55145	       0.00000	       0.00000	       0.00000
      17.81250	      93.21655	       0.00000	       0.00000	       0.00000
      17.92969	      92.85866	       0.00000	       0.00000	       0.00000
      18.04688	      89.93578	       0.00000	       0.00000	       0.00000
      18.16406	      90.86462	       0.00000	       0.00000	       0.00000
      18.28125	      92.54336	       0.00000	       0.00000	       0.00000
      18.39844	      88.56383	       0.00000	       0.00000	       0.00000
      18.51563	      94.41808	       0.00000	       0.00000	       0.00000
      18.63281	      89.21146	       0.00000	       0.00000	       0.00000
      18.75000	      94.18800	       0.00000	       0.00000	       0.00000
      18.86719	      88.81947	       0.00000	       0.00000	       0.00000
      18.98438	      90.30221	       0.00000	       0.00000	       0.00000
      19.10156	      89.09216	       0.00000	       0.00000	       0.00000
      19.21875	      94.45217	       0.00000	       0.00000	       0.00000
      19.33594	      89.72275	       0.00000	       0.00000	       0.00000
      19.45313	      91.15436	       0.00000	       0.00000	       0.00000
      19.57031	      92.26215	       0.00000	       0.00000	       0.00000
      19.68750	      89.51823	       0.00000	       0.00000	       0.00000
      19.80469	      89.85057	       0.00000	       0.00000	       0.00000
      19.92188	      89.26259	       0.00000	       0.00000	       0.00000
      20.03906	      90.65159	       0.00000	       0.00000	       0.00000
      20.15625	      94.78451	       0.00000	       0.00000	       0.00000
      20.27344	      90.88167	       0.00000	       0.00000	       0.00000
      20.39063	      90.89019	       0.00000	       0.00000	       0.00000
      20.50781	      94.83564	       0.00000	       0.00000	       0.00000
      20.62500	      87.50716	       0.00000	       0.00000	       0.00000
      20.74219	      92.85014	       0.00000	       0.00000	       0.00000
      20.85938	      94.72486	       0.00000	       0.00000	       0.00000
      20.97656	      90.14882	       0.00000	       0.00000	       0.00000
      21.09375	      91.14584	       0.00000	       0.00000	       0.00000
      21.21094	      87.60090	       0.00000	       0.00000	       0.00000
      21.32813	      96.26725	       0.00000	       0.00000	       0.00000
      21.44531	      90.25960	       0.00000	       0.00000	       0.00000
      21.56250	      91.20548	       0.00000	       0.00000	       0.00000
      21.67969	      93.60854	       0.00000	       0.00000	       0.00000
      21.79688	      93.67672	       0.00000	       0.00000	       0.00000
      21.91406	      95.37249	       0.00000	       0.00000	       0.00000
      22.03125	      93.61707	       0.00000	       0.00000	       0.00000
      22.14844	      91.74234	       0.00000	       0.00000	       0.00000
      22.26563	      92.40701	       0.00000	       0.00000	       0.00000
      22.38281	      91.83607	       0.00000	       0.00000	       0.00000
      22.50000	      90.16586	       0.00000	       0.00000	       0.00000
      22.61719	      93.80454	       0.00000	       0.00000	       0.00000
      22.73438	      88.82799	       0.00000	       0.00000	       0.00000
      22.85156	      91.44408	       0.00000	       0.00000	       0.00000
      22.96875	      91.51226	       0.00000	       0.00000	       0.00000
      23.08594	      92.39849	       0.00000	       0.00000	       0.00000
      23.20313	      91.23957	       0.00000	       0.00000	       0.00000
      23.32031	      94.95494	       0.00000	       0.00000	       0.00000
      23.43750	      92.65414	       0.00000	       0.00000	       0.00000
      23.55469	      92.14285	       0.00000	       0.00000	       0.00000
      23.67188	      91.99799	       0.00000	       0.00000	       0.00000
      23.78906	      91.48669	       0.00000	       0.00000	       0.00000
      23.90625	      91.02654	       0.00000	       0.00000	       0.00000
      24.02344	      88.01845	       0.00000	       0.00000	       0.00000
      24.14063	      91.05210	       0.00000	       0.00000	       0.00000
      24.25781	      86.73170	       0.00000	       0.00000	       0.00000
      24.37500	      92.02355	       0.00000	       0.00000	       0.00000
      24.49219	      93.93236	       0.00000	       0.00000	       0.00000
      24.60938	      90.85610	       0.00000	       0.00000	       0.00000
      24.72656	      93.43812	       0.00000	       0.00000	       0.00000
      24.84375	      92.53484	       0.00000	       0.00000	       0.00000
      24.96094	      89.82500	       0.00000	       0.00000	       0.00000
      25.07813	      88.57234	       0.00000	       0.00000	       0.00000
      25.19531	      88.12070	       0.00000	       0.00000	       0.00000
      25.31250	      86.53571	       0.00000	       0.00000	       0.00000
      25.42969	      91.90425	       0.00000	       0.00000	       0.00000
      25.54688	      90.51524	       0.00000	       0.00000	       0.00000
      25.66406	      87.54977	       0.00000	       0.00000	       0.00000
      25.78125	      89.61197	       0.00000	       0.00000	       0.00000
      25.89844	      92.15137	       0.00000	       0.00000	       0.00000
      26.01563	      91.92129	       0.00000	       0.00000	       0.00000
      26.13281	      91.16288	       0.00000	       0.00000	       0.00000
      26.25000	      92.70527	       0.00000	       0.00000	       0.00000
      26.36719	      97.42617	       0.00000	       0.00000	       0.00000
      26.48438	      93.71080	       0.00000	       0.00000	       0.00000
      26.60156	      95.40658	       0.00000	       0.00000	       0.00000
      26.71875	      91.19696	       0.00000	       0.00000	       0.00000
      26.83594	      94.24766	       0.00000	       0.00000	       0.00000
      26.95313	      89.73127	       0.00000	       0.00000	       0.00000
      27.07031	      92.36441	       0.00000	       0.00000	       0.00000
      27.18750	      90.71124	       0.00000	       0.00000	       0.00000
      27.30469	      92.77344	       0.00000	       0.00000	       0.00000
      27.42188	      95.34693	       0.00000	       0.00000	       0.00000
      27.53906	      87.90767	       0.00000	       0.00000	       0.00000
      27.65625	      87.85654	       0.00000	       0.00000	       0.00000
      27.77344	      92.57745	       0.00000	       0.00000	       0.00000
      27.89063	      90.10622	       0.00000	       0.00000	       0.00000
      28.00781	      92.97796	       0.00000	       0.00000	       0.00000
      28.12500	      95.67075	       0.00000	       0.00000	       0.00000
      28.24219	      95.84117	       0.00000	       0.00000	       0.00000
      28.35938	      89.46710	       0.00000	       0.00000	       0.00000
      28.47656	      92.78196	       0.00000	       0.00000	       0.00000
      28.59375	      93.89828	       0.00000	       0.00000	       0.00000
      28.71094	      91.44408	       0.00000	       0.00000	       0.00000
      28.82813	      90.23404	       0.00000	       0.00000	       0.00000
      28.94531	      94.15392	       0.00000	       0.00000	       0.00000
      29.06250	      97.79259	       0.00000	       0.00000	       0.00000
      29.17969	      92.21954	       0.00000	       0.00000	       0.00000
      29.29688	      87.92471	       0.00000	       0.00000	       0.00000
      29.41406	      93.27621	       0.00000	       0.00000	       0.00000
      29.53125	      92.26215	       0.00000	       0.00000	       0.00000
      29.64844	      91.57191	       0.00000	       0.00000	       0.00000

Monitor Diode	      1.00
