ALV-7002/USB-25
Date :	"13/03/2025"
Time :	"10:40:31"
Samplename : 	""
SampMemo(0) : 	""
SampMemo(1) : 	""
SampMemo(2) : 	""
SampMemo(3) : 	""
SampMemo(4) : 	""
SampMemo(5) : 	""
SampMemo(6) : 	""
SampMemo(7) : 	""
SampMemo(8) : 	""
SampMemo(9) : 	""
Temperature [K] :	     298.16000
Viscosity [cp]  :	       0.89000
Refractive Index:	       1.33200
Wavelength [nm] :	     632.80000
Angle [°]       :	      90.00000
Duration [s]    :	        30
FloatDur [ms]   :	        29989
Stop TP [ms]   :	   1543895
Runs            :	        10
Mode            :	"A-CH0 "
MeanCR0 [kHz]   :	      95.34245
MeanCR1 [kHz]   :	       0.00000
MeanCR2 [kHz]   :	       0.00000
MeanCR3 [kHz]   :	       0.00000

"Correlation (Multi, Averaged)"
"Lag [ms]"	"Average"	" 1,  92.718"	" 2,  93.489"	" 3,  94.095"	" 4,  94.323"	" 5,  94.155"	" 6,  93.453"	" 7,  93.613"	" 8,  94.443"	" 9,  95.505"	"10,  95.342"	
  2.50000E-005	  1.18810E+002	  1.20072E+002	  1.19619E+002	  1.18910E+002	  1.18744E+002	  1.19239E+002	  1.19462E+002	  1.19175E+002	  1.18201E+002	  1.17132E+002	  1.17551E+002	
  5.00000E-005	  1.08573E+002	  1.09802E+002	  1.09284E+002	  1.08651E+002	  1.08714E+002	  1.08775E+002	  1.09103E+002	  1.09013E+002	  1.07969E+002	  1.06996E+002	  1.07424E+002	
  7.50000E-005	  8.22003E+001	  8.28460E+001	  8.26262E+001	  8.23774E+001	  8.25005E+001	  8.26268E+001	  8.24774E+001	  8.22624E+001	  8.16786E+001	  8.10986E+001	  8.15091E+001	
  1.00000E-004	  2.44931E+001	  2.45299E+001	  2.45309E+001	  2.46297E+001	  2.48027E+001	  2.48033E+001	  2.44166E+001	  2.42888E+001	  2.41905E+001	  2.42230E+001	  2.45155E+001	
  1.25000E-004	  8.00315E+000	  7.96398E+000	  8.01899E+000	  8.04858E+000	  8.10939E+000	  8.18081E+000	  7.95018E+000	  7.87084E+000	  7.95177E+000	  7.89183E+000	  8.04508E+000	
  1.50000E-004	  2.60704E+000	  2.62950E+000	  2.63119E+000	  2.57193E+000	  2.61185E+000	  2.64133E+000	  2.56568E+000	  2.60173E+000	  2.62686E+000	  2.57738E+000	  2.61295E+000	
  1.75000E-004	  1.95057E+000	  1.96904E+000	  1.95863E+000	  1.93343E+000	  1.97649E+000	  1.95946E+000	  1.93752E+000	  1.93478E+000	  1.97083E+000	  1.91847E+000	  1.94709E+000	
  2.00000E-004	  1.69640E+000	  1.69873E+000	  1.73562E+000	  1.67370E+000	  1.70709E+000	  1.71181E+000	  1.66582E+000	  1.67816E+000	  1.71920E+000	  1.67368E+000	  1.70014E+000	
  2.25000E-004	  1.45837E+000	  1.46498E+000	  1.45478E+000	  1.45523E+000	  1.48386E+000	  1.46311E+000	  1.43246E+000	  1.46569E+000	  1.45927E+000	  1.44834E+000	  1.45598E+000	
  2.50000E-004	  1.32023E+000	  1.34467E+000	  1.32600E+000	  1.31928E+000	  1.31565E+000	  1.31597E+000	  1.30784E+000	  1.30953E+000	  1.30300E+000	  1.33004E+000	  1.33038E+000	
  2.75000E-004	  1.26559E+000	  1.26982E+000	  1.23640E+000	  1.27939E+000	  1.30471E+000	  1.29129E+000	  1.23010E+000	  1.24408E+000	  1.27746E+000	  1.26993E+000	  1.25276E+000	
  3.00000E-004	  1.28895E+000	  1.29685E+000	  1.25752E+000	  1.30466E+000	  1.31655E+000	  1.30137E+000	  1.28157E+000	  1.27330E+000	  1.27565E+000	  1.31249E+000	  1.26949E+000	
  3.25000E-004	  1.37835E+000	  1.37451E+000	  1.34019E+000	  1.40133E+000	  1.39736E+000	  1.37916E+000	  1.38725E+000	  1.38471E+000	  1.37479E+000	  1.36440E+000	  1.37983E+000	
  3.50000E-004	  1.50116E+000	  1.48701E+000	  1.50428E+000	  1.52831E+000	  1.55117E+000	  1.50434E+000	  1.51738E+000	  1.50480E+000	  1.48450E+000	  1.47100E+000	  1.45877E+000	
  3.75000E-004	  1.63590E+000	  1.62795E+000	  1.63013E+000	  1.65391E+000	  1.67950E+000	  1.61432E+000	  1.63024E+000	  1.66416E+000	  1.63095E+000	  1.62761E+000	  1.60022E+000	
  4.00000E-004	  1.67123E+000	  1.66326E+000	  1.66236E+000	  1.68946E+000	  1.70424E+000	  1.65916E+000	  1.68072E+000	  1.69361E+000	  1.67114E+000	  1.64648E+000	  1.64189E+000	
  4.50000E-004	  1.49164E+000	  1.50482E+000	  1.48678E+000	  1.52206E+000	  1.51797E+000	  1.46334E+000	  1.49431E+000	  1.50183E+000	  1.46939E+000	  1.47692E+000	  1.47902E+000	
  5.00000E-004	  1.16386E+000	  1.14100E+000	  1.17178E+000	  1.18073E+000	  1.17548E+000	  1.15355E+000	  1.17512E+000	  1.17521E+000	  1.13087E+000	  1.16304E+000	  1.17184E+000	
  5.50000E-004	  8.83561E-001	  8.80999E-001	  8.97644E-001	  9.02357E-001	  8.99850E-001	  8.92733E-001	  8.78906E-001	  8.68975E-001	  8.46150E-001	  8.80231E-001	  8.87765E-001	
  6.00000E-004	  7.84808E-001	  8.11156E-001	  8.06266E-001	  7.86347E-001	  7.90784E-001	  8.13067E-001	  7.50159E-001	  7.69663E-001	  7.73081E-001	  7.67414E-001	  7.80138E-001	
  6.50000E-004	  7.33598E-001	  7.62406E-001	  7.39565E-001	  7.37553E-001	  7.39886E-001	  7.53186E-001	  7.24653E-001	  7.03607E-001	  7.25930E-001	  7.17696E-001	  7.31497E-001	
  7.00000E-004	  6.76802E-001	  7.00766E-001	  6.61451E-001	  6.90282E-001	  6.73772E-001	  6.85857E-001	  6.86014E-001	  6.63425E-001	  6.68804E-001	  6.82235E-001	  6.55417E-001	
  7.50000E-004	  6.23415E-001	  6.11470E-001	  6.36389E-001	  6.48034E-001	  6.18377E-001	  6.39441E-001	  6.31949E-001	  6.18602E-001	  6.21578E-001	  6.18478E-001	  5.89828E-001	
  8.00000E-004	  5.73499E-001	  5.58658E-001	  5.75124E-001	  5.95168E-001	  5.85057E-001	  5.90280E-001	  5.64941E-001	  5.80931E-001	  5.68797E-001	  5.70551E-001	  5.45479E-001	
  9.00000E-004	  4.88221E-001	  4.88385E-001	  4.75380E-001	  4.94573E-001	  5.09273E-001	  5.01022E-001	  4.78269E-001	  4.82494E-001	  4.79935E-001	  4.99959E-001	  4.72921E-001	
  1.00000E-003	  4.43555E-001	  4.42956E-001	  4.42877E-001	  4.39423E-001	  4.43534E-001	  4.43059E-001	  4.54138E-001	  4.49276E-001	  4.61536E-001	  4.28562E-001	  4.30185E-001	
  1.10000E-003	  3.98133E-001	  3.98269E-001	  4.09179E-001	  4.18299E-001	  3.81467E-001	  4.05633E-001	  3.92094E-001	  3.97755E-001	  4.01199E-001	  3.91529E-001	  3.85909E-001	
  1.20000E-003	  3.58929E-001	  3.56707E-001	  3.67423E-001	  3.73083E-001	  3.38216E-001	  3.83177E-001	  3.52194E-001	  3.67505E-001	  3.47020E-001	  3.68351E-001	  3.35617E-001	
  1.30000E-003	  3.32765E-001	  3.25262E-001	  3.28019E-001	  3.34489E-001	  3.42451E-001	  3.40410E-001	  3.37189E-001	  3.44028E-001	  3.19100E-001	  3.31611E-001	  3.25089E-001	
  1.40000E-003	  3.09038E-001	  3.01473E-001	  3.08240E-001	  3.04459E-001	  3.13929E-001	  3.09868E-001	  2.96755E-001	  3.32841E-001	  3.11543E-001	  2.92348E-001	  3.18927E-001	
  1.50000E-003	  2.93228E-001	  3.13621E-001	  2.99796E-001	  2.83069E-001	  2.85219E-001	  2.90948E-001	  2.75411E-001	  3.00345E-001	  2.91557E-001	  2.92823E-001	  2.99485E-001	
  1.60000E-003	  2.92533E-001	  2.99324E-001	  2.91217E-001	  2.83698E-001	  2.98468E-001	  2.97719E-001	  2.88145E-001	  2.83622E-001	  2.88969E-001	  3.06276E-001	  2.87893E-001	
  1.80000E-003	  2.94906E-001	  2.99207E-001	  2.93994E-001	  2.88113E-001	  3.04802E-001	  3.07160E-001	  3.02195E-001	  2.77762E-001	  3.03232E-001	  2.91891E-001	  2.80703E-001	
  2.00000E-003	  3.10138E-001	  3.06219E-001	  3.17725E-001	  3.08856E-001	  3.05158E-001	  2.96177E-001	  3.21572E-001	  3.26638E-001	  3.07576E-001	  2.96351E-001	  3.15112E-001	
  2.20000E-003	  3.30110E-001	  3.31883E-001	  3.44694E-001	  3.27640E-001	  3.02853E-001	  3.22845E-001	  3.55554E-001	  3.45435E-001	  3.21197E-001	  3.24519E-001	  3.24484E-001	
  2.40000E-003	  3.36616E-001	  3.37332E-001	  3.32993E-001	  3.28896E-001	  3.29352E-001	  3.47256E-001	  3.20599E-001	  3.39290E-001	  3.53443E-001	  3.53527E-001	  3.23475E-001	
  2.60000E-003	  3.28589E-001	  3.20086E-001	  3.43923E-001	  3.35727E-001	  3.29989E-001	  3.18858E-001	  3.30908E-001	  3.26505E-001	  3.18344E-001	  3.34718E-001	  3.26832E-001	
  2.80000E-003	  3.21462E-001	  3.18816E-001	  3.35229E-001	  3.31579E-001	  3.30157E-001	  3.30067E-001	  3.12466E-001	  3.13111E-001	  2.99359E-001	  3.11376E-001	  3.32463E-001	
  3.00000E-003	  3.03419E-001	  2.94988E-001	  3.21407E-001	  3.04898E-001	  3.17189E-001	  3.05749E-001	  2.85357E-001	  2.98195E-001	  2.95864E-001	  2.93353E-001	  3.17184E-001	
  3.20000E-003	  2.80086E-001	  2.71308E-001	  2.87236E-001	  2.82700E-001	  2.89540E-001	  2.83446E-001	  2.66801E-001	  2.79409E-001	  2.84180E-001	  2.78072E-001	  2.78163E-001	
  3.60000E-003	  2.35111E-001	  2.27393E-001	  2.30154E-001	  2.40814E-001	  2.45886E-001	  2.42616E-001	  2.27770E-001	  2.31084E-001	  2.38049E-001	  2.40408E-001	  2.26936E-001	
  4.00000E-003	  1.96542E-001	  1.87725E-001	  2.05787E-001	  1.90687E-001	  2.01809E-001	  2.13521E-001	  1.96557E-001	  1.99968E-001	  1.80820E-001	  1.94044E-001	  1.94499E-001	
  4.40000E-003	  1.67239E-001	  1.69288E-001	  1.69111E-001	  1.76024E-001	  1.62849E-001	  1.75080E-001	  1.58729E-001	  1.68529E-001	  1.61447E-001	  1.64195E-001	  1.67143E-001	
  4.80000E-003	  1.43519E-001	  1.44278E-001	  1.43915E-001	  1.41132E-001	  1.45177E-001	  1.39262E-001	  1.41328E-001	  1.54640E-001	  1.36219E-001	  1.40570E-001	  1.48674E-001	
  5.20000E-003	  1.26311E-001	  1.28634E-001	  1.18005E-001	  1.18704E-001	  1.23889E-001	  1.14033E-001	  1.32699E-001	  1.43606E-001	  1.24875E-001	  1.32189E-001	  1.26481E-001	
  5.60000E-003	  1.11407E-001	  9.87510E-002	  1.18352E-001	  1.05316E-001	  1.19832E-001	  1.08202E-001	  1.03499E-001	  1.20604E-001	  1.01923E-001	  1.12950E-001	  1.24638E-001	
  6.00000E-003	  1.02371E-001	  1.10265E-001	  9.75993E-002	  9.79896E-002	  9.46827E-002	  1.06557E-001	  1.09112E-001	  1.05736E-001	  1.00874E-001	  1.00969E-001	  9.99231E-002	
  6.40000E-003	  9.88345E-002	  9.87666E-002	  9.91365E-002	  1.02840E-001	  9.21776E-002	  9.59906E-002	  1.01815E-001	  1.01781E-001	  1.01162E-001	  9.59860E-002	  9.86894E-002	
  7.20000E-003	  9.12356E-002	  9.33223E-002	  7.89043E-002	  9.56890E-002	  9.42390E-002	  8.27398E-002	  9.83362E-002	  9.40803E-002	  8.98942E-002	  9.74117E-002	  8.77396E-002	
  8.00000E-003	  8.40691E-002	  8.53927E-002	  7.33667E-002	  7.99698E-002	  7.77510E-002	  8.31865E-002	  8.51207E-002	  8.47578E-002	  8.55824E-002	  9.49669E-002	  9.05967E-002	
  8.80000E-003	  8.02441E-002	  8.98202E-002	  7.90730E-002	  7.28001E-002	  7.80836E-002	  7.60963E-002	  8.29634E-002	  7.02842E-002	  8.97194E-002	  8.67369E-002	  7.68636E-002	
  9.60000E-003	  7.55383E-002	  7.97226E-002	  6.85713E-002	  6.97219E-002	  6.78469E-002	  7.53064E-002	  7.53462E-002	  8.23503E-002	  7.54711E-002	  7.33248E-002	  8.77217E-002	
  1.04000E-002	  7.88362E-002	  9.08407E-002	  7.38005E-002	  7.71427E-002	  7.88379E-002	  7.61711E-002	  8.10400E-002	  7.53300E-002	  7.53153E-002	  7.67201E-002	  8.31638E-002	
  1.12000E-002	  7.46385E-002	  7.51816E-002	  7.69910E-002	  7.95833E-002	  6.91962E-002	  6.56862E-002	  7.12894E-002	  7.14301E-002	  6.58605E-002	  8.66729E-002	  8.44936E-002	
  1.20000E-002	  7.43087E-002	  7.91562E-002	  7.29570E-002	  7.46259E-002	  6.63384E-002	  7.74547E-002	  6.75763E-002	  8.43579E-002	  7.43518E-002	  7.29957E-002	  7.32732E-002	
  1.28000E-002	  7.38365E-002	  7.69889E-002	  6.95515E-002	  6.70702E-002	  6.66299E-002	  7.20483E-002	  7.81166E-002	  7.92090E-002	  7.99292E-002	  6.92777E-002	  7.95436E-002	
  1.44000E-002	  7.28206E-002	  7.17595E-002	  7.25131E-002	  7.67068E-002	  6.68126E-002	  7.11949E-002	  7.12248E-002	  6.93388E-002	  7.60661E-002	  7.82458E-002	  7.43438E-002	
  1.60000E-002	  6.96868E-002	  7.40495E-002	  7.58169E-002	  6.30109E-002	  6.42218E-002	  6.63239E-002	  6.24443E-002	  7.03317E-002	  6.94996E-002	  7.31479E-002	  7.80213E-002	
  1.76000E-002	  6.98798E-002	  7.22111E-002	  6.57489E-002	  6.62270E-002	  7.25260E-002	  6.66424E-002	  7.30373E-002	  7.41748E-002	  7.16460E-002	  6.41292E-002	  7.24547E-002	
  1.92000E-002	  6.79460E-002	  7.16862E-002	  6.21825E-002	  6.48330E-002	  6.34769E-002	  7.10614E-002	  6.07596E-002	  7.02865E-002	  7.10010E-002	  7.40729E-002	  7.01001E-002	
  2.08000E-002	  6.94490E-002	  6.90056E-002	  6.82165E-002	  6.78541E-002	  7.49044E-002	  7.40482E-002	  6.58473E-002	  6.52115E-002	  7.06704E-002	  6.82420E-002	  7.04899E-002	
  2.24000E-002	  6.64380E-002	  7.28301E-002	  6.01125E-002	  6.45214E-002	  6.12805E-002	  6.31142E-002	  6.53652E-002	  6.58386E-002	  7.01675E-002	  7.05200E-002	  7.06297E-002	
  2.40000E-002	  6.68464E-002	  6.37872E-002	  6.41465E-002	  7.11976E-002	  6.29390E-002	  6.30433E-002	  6.91777E-002	  6.36150E-002	  7.34970E-002	  6.60942E-002	  7.09667E-002	
  2.56000E-002	  6.74266E-002	  7.05398E-002	  6.46936E-002	  6.54973E-002	  6.53445E-002	  6.48172E-002	  7.21289E-002	  6.50563E-002	  6.86403E-002	  6.67832E-002	  7.07644E-002	
  2.88000E-002	  6.39493E-002	  6.11897E-002	  6.44499E-002	  6.27640E-002	  6.21903E-002	  6.50135E-002	  6.19439E-002	  6.28984E-002	  6.49378E-002	  6.47029E-002	  6.94026E-002	
  3.20000E-002	  6.40908E-002	  6.02461E-002	  6.37956E-002	  6.61633E-002	  6.41229E-002	  6.95966E-002	  6.19332E-002	  6.38735E-002	  6.26555E-002	  6.45703E-002	  6.39506E-002	
  3.52000E-002	  6.32996E-002	  6.44753E-002	  5.98328E-002	  6.17923E-002	  6.12592E-002	  5.82665E-002	  6.80121E-002	  6.42564E-002	  6.54230E-002	  6.51622E-002	  6.45165E-002	
  3.84000E-002	  6.16516E-002	  6.65249E-002	  6.04538E-002	  5.89853E-002	  6.09429E-002	  6.43858E-002	  5.55183E-002	  6.75822E-002	  5.82245E-002	  6.26979E-002	  6.12002E-002	
  4.16000E-002	  6.00976E-002	  6.01834E-002	  6.36623E-002	  5.96990E-002	  5.66468E-002	  5.83914E-002	  6.48801E-002	  6.37443E-002	  6.11537E-002	  5.74172E-002	  5.51979E-002	
  4.48000E-002	  5.77352E-002	  6.01187E-002	  5.18401E-002	  5.35569E-002	  5.87914E-002	  5.91348E-002	  6.07099E-002	  5.95492E-002	  5.85441E-002	  6.05384E-002	  5.45690E-002	
  4.80000E-002	  5.67679E-002	  6.09744E-002	  5.00906E-002	  5.92636E-002	  5.74312E-002	  5.64219E-002	  5.77842E-002	  5.66447E-002	  5.78262E-002	  5.46949E-002	  5.65471E-002	
  5.12000E-002	  5.76717E-002	  5.80483E-002	  5.68358E-002	  5.50674E-002	  5.63719E-002	  6.06734E-002	  6.01094E-002	  5.93685E-002	  5.79494E-002	  5.47624E-002	  5.75302E-002	
  5.76000E-002	  5.57633E-002	  5.19294E-002	  5.31057E-002	  5.52877E-002	  5.85586E-002	  5.36513E-002	  5.46780E-002	  6.17223E-002	  5.70973E-002	  5.66718E-002	  5.49309E-002	
  6.40000E-002	  5.44220E-002	  5.34132E-002	  5.15195E-002	  5.30361E-002	  5.56200E-002	  5.54926E-002	  5.31486E-002	  5.92987E-002	  5.52942E-002	  5.27681E-002	  5.46287E-002	
  7.04000E-002	  5.24009E-002	  5.13626E-002	  5.00828E-002	  5.53876E-002	  5.31071E-002	  5.24071E-002	  5.29801E-002	  5.03348E-002	  5.46410E-002	  5.30726E-002	  5.06333E-002	
  7.68000E-002	  5.09876E-002	  5.20131E-002	  4.79240E-002	  4.94774E-002	  5.05854E-002	  5.16348E-002	  5.00176E-002	  4.87182E-002	  5.56227E-002	  5.42253E-002	  4.96572E-002	
  8.32000E-002	  4.90560E-002	  5.08846E-002	  4.55284E-002	  4.28376E-002	  5.06328E-002	  4.80938E-002	  5.25006E-002	  5.05058E-002	  4.96786E-002	  5.24096E-002	  4.74883E-002	
  8.96000E-002	  4.78096E-002	  4.89960E-002	  5.04819E-002	  4.52212E-002	  4.45131E-002	  4.92780E-002	  4.77043E-002	  4.77306E-002	  4.45592E-002	  5.09102E-002	  4.87019E-002	
  9.60000E-002	  4.74544E-002	  4.90095E-002	  4.85635E-002	  4.91362E-002	  5.11839E-002	  4.77652E-002	  4.48902E-002	  4.33820E-002	  4.47761E-002	  4.76890E-002	  4.81488E-002	
  1.02400E-001	  4.56671E-002	  4.34711E-002	  4.39541E-002	  4.54507E-002	  4.91172E-002	  4.68426E-002	  4.48217E-002	  4.63565E-002	  4.54759E-002	  4.53529E-002	  4.58284E-002	
  1.15200E-001	  4.29368E-002	  4.52454E-002	  4.09052E-002	  4.45695E-002	  4.13530E-002	  4.36767E-002	  4.20261E-002	  4.48606E-002	  4.32394E-002	  4.12838E-002	  4.22080E-002	
  1.28000E-001	  4.11827E-002	  4.14239E-002	  3.97430E-002	  3.92472E-002	  4.03735E-002	  4.15858E-002	  4.06404E-002	  4.10086E-002	  4.24001E-002	  4.35361E-002	  4.18678E-002	
  1.40800E-001	  3.91168E-002	  3.92512E-002	  3.87342E-002	  4.05791E-002	  3.91030E-002	  4.09383E-002	  3.75765E-002	  3.94795E-002	  3.93360E-002	  3.92346E-002	  3.69356E-002	
  1.53600E-001	  3.79017E-002	  3.82353E-002	  3.76013E-002	  3.58917E-002	  3.57290E-002	  3.92350E-002	  3.79529E-002	  3.79420E-002	  3.93300E-002	  3.71670E-002	  3.99323E-002	
  1.66400E-001	  3.49454E-002	  3.40934E-002	  3.45559E-002	  3.46550E-002	  3.36948E-002	  3.74968E-002	  3.35068E-002	  3.42355E-002	  3.45657E-002	  3.56182E-002	  3.70317E-002	
  1.79200E-001	  3.36262E-002	  3.49433E-002	  3.24447E-002	  3.42890E-002	  3.35315E-002	  3.48520E-002	  3.45976E-002	  3.18286E-002	  3.32902E-002	  3.35727E-002	  3.29128E-002	
  1.92000E-001	  3.21881E-002	  3.28910E-002	  3.12026E-002	  3.11032E-002	  3.26744E-002	  3.20853E-002	  3.29367E-002	  3.15757E-002	  3.24640E-002	  3.29482E-002	  3.19994E-002	
  2.04800E-001	  3.04230E-002	  3.12692E-002	  2.98089E-002	  3.17036E-002	  2.92718E-002	  2.91111E-002	  2.98386E-002	  3.13054E-002	  2.98254E-002	  3.16930E-002	  3.04030E-002	
  2.30400E-001	  2.68015E-002	  2.59055E-002	  2.76871E-002	  2.47727E-002	  2.61846E-002	  2.63332E-002	  2.77371E-002	  2.77360E-002	  2.59943E-002	  2.91839E-002	  2.64805E-002	
  2.56000E-001	  2.45470E-002	  2.63582E-002	  2.34456E-002	  2.48849E-002	  2.39684E-002	  2.43288E-002	  2.50166E-002	  2.35549E-002	  2.48487E-002	  2.60796E-002	  2.29844E-002	
  2.81600E-001	  2.15692E-002	  2.32569E-002	  2.24628E-002	  2.18975E-002	  2.07479E-002	  2.23080E-002	  2.11867E-002	  2.00786E-002	  1.97718E-002	  2.26576E-002	  2.13244E-002	
  3.07200E-001	  2.04500E-002	  2.05673E-002	  2.02996E-002	  2.19094E-002	  1.93198E-002	  2.12255E-002	  2.10531E-002	  2.08463E-002	  1.99389E-002	  2.03864E-002	  1.89533E-002	
  3.32800E-001	  1.79832E-002	  1.62486E-002	  1.68899E-002	  1.88760E-002	  1.92618E-002	  1.69812E-002	  2.01063E-002	  1.83161E-002	  1.58426E-002	  1.78366E-002	  1.94726E-002	
  3.58400E-001	  1.61408E-002	  1.73478E-002	  1.59546E-002	  1.57582E-002	  1.60848E-002	  1.68544E-002	  1.72972E-002	  1.66137E-002	  1.64071E-002	  1.39903E-002	  1.51001E-002	
  3.84000E-001	  1.46016E-002	  1.51357E-002	  1.29615E-002	  1.54691E-002	  1.39944E-002	  1.45466E-002	  1.46403E-002	  1.31546E-002	  1.58824E-002	  1.55435E-002	  1.46879E-002	
  4.09600E-001	  1.33303E-002	  1.41794E-002	  1.33224E-002	  1.37717E-002	  1.25017E-002	  1.30346E-002	  1.29700E-002	  1.18663E-002	  1.36628E-002	  1.42369E-002	  1.37573E-002	
  4.60800E-001	  1.05899E-002	  1.09425E-002	  8.92941E-003	  1.12531E-002	  8.91558E-003	  1.01323E-002	  1.19586E-002	  1.17335E-002	  9.71926E-003	  1.21951E-002	  1.01192E-002	
  5.12000E-001	  8.67922E-003	  9.00609E-003	  8.03486E-003	  8.46250E-003	  8.84819E-003	  8.06145E-003	  9.73244E-003	  9.20641E-003	  8.23404E-003	  8.27234E-003	  8.93390E-003	
  5.63200E-001	  7.27159E-003	  9.04314E-003	  7.12675E-003	  6.39273E-003	  7.39794E-003	  6.76221E-003	  6.08714E-003	  6.38400E-003	  7.41618E-003	  8.20693E-003	  7.89888E-003	
  6.14400E-001	  6.25763E-003	  6.80579E-003	  5.57785E-003	  6.36151E-003	  6.06340E-003	  5.62020E-003	  4.87782E-003	  6.43335E-003	  6.67401E-003	  6.49798E-003	  7.66441E-003	
  6.65600E-001	  4.90372E-003	  4.77313E-003	  4.54861E-003	  4.73642E-003	  4.65156E-003	  5.27202E-003	  5.80532E-003	  5.15466E-003	  3.67378E-003	  5.71055E-003	  4.71114E-003	
  7.16800E-001	  3.68479E-003	  3.91778E-003	  4.65047E-003	  4.57194E-003	  3.20882E-003	  2.97324E-003	  4.14115E-003	  3.98177E-003	  3.24442E-003	  3.59060E-003	  2.56770E-003	
  7.68000E-001	  3.46730E-003	  2.56781E-003	  3.61010E-003	  2.97041E-003	  3.39320E-003	  3.13867E-003	  3.89845E-003	  4.87212E-003	  3.71970E-003	  3.22156E-003	  3.28100E-003	
  8.19200E-001	  2.91689E-003	  2.26838E-003	  2.52909E-003	  3.26662E-003	  3.31881E-003	  2.85127E-003	  2.29829E-003	  3.37002E-003	  2.97749E-003	  3.02274E-003	  3.26620E-003	
  9.21600E-001	  1.96401E-003	  1.54762E-003	  1.56793E-003	  9.59497E-004	  1.79283E-003	  2.49425E-003	  2.15599E-003	  1.45969E-003	  1.80184E-003	  2.52204E-003	  3.33836E-003	
  1.02400E+000	  1.57244E-003	  1.41805E-003	 -2.99981E-004	  3.06942E-003	  1.77084E-003	  1.27692E-003	  2.45376E-003	  7.41805E-004	  1.26440E-003	  2.72599E-003	  1.30323E-003	
  1.12640E+000	  1.03087E-003	  1.69562E-003	  3.89662E-006	  2.06883E-003	  2.26109E-003	  9.75507E-004	 -4.57986E-004	  1.39363E-004	  1.83282E-003	  1.09024E-003	  6.99293E-004	
  1.22880E+000	  7.26877E-004	  1.47365E-003	 -1.50437E-005	  8.67810E-004	  2.35355E-003	  2.68394E-004	  1.49223E-003	  6.53586E-004	 -9.01809E-005	 -5.11916E-004	  7.76685E-004	
  1.33120E+000	  4.66510E-004	  5.48122E-004	  6.70588E-004	  2.03864E-004	  7.23748E-004	  6.84208E-004	  6.57297E-004	  5.10440E-004	  1.08783E-004	  8.94452E-004	 -3.36406E-004	
  1.43360E+000	  5.18623E-004	  9.18547E-004	  6.23329E-004	 -3.32252E-004	  1.29801E-003	  7.81740E-005	  1.05105E-003	  6.53057E-005	  9.98688E-004	  4.16860E-004	  6.85195E-005	
  1.53600E+000	  5.98860E-004	  3.60029E-004	 -3.60934E-004	  8.59778E-004	  1.05535E-003	  1.00699E-003	  8.10405E-004	 -1.16266E-005	  1.49841E-003	 -1.03842E-004	  8.74052E-004	
  1.63840E+000	  4.31365E-004	  4.47495E-004	  1.06790E-003	  1.08662E-003	 -1.05855E-004	  5.69534E-004	  4.83885E-004	 -3.42984E-004	  9.56092E-004	  2.13440E-004	 -6.24761E-005	
  1.84320E+000	  5.21704E-004	  7.19791E-004	  4.29587E-004	 -1.01640E-003	  1.52025E-003	  9.61787E-004	  1.25777E-004	  6.71123E-004	  3.99949E-004	  1.29910E-003	  1.06080E-004	
  2.04800E+000	  6.29897E-004	  1.13420E-003	  4.91650E-004	 -8.54610E-004	  1.13848E-003	  1.04038E-003	  7.25304E-004	  1.09749E-003	  8.83433E-004	  1.45210E-004	  4.97436E-004	
  2.25280E+000	  1.45252E-004	  5.53490E-005	  1.25974E-004	 -1.89561E-004	  3.98415E-004	 -2.39272E-004	  5.36952E-004	 -1.84015E-004	  4.34119E-004	 -1.00525E-004	  6.15080E-004	
  2.45760E+000	  9.01984E-005	 -4.43955E-005	  2.19718E-004	 -1.39138E-003	 -3.63281E-004	 -1.45683E-004	  7.06643E-004	  1.87809E-004	 -2.48245E-004	  1.73544E-003	  2.45352E-004	
  2.66240E+000	  1.21809E-004	  1.04983E-003	  1.15106E-005	 -7.69723E-004	  5.16702E-007	 -3.17923E-004	  5.48959E-004	 -5.86819E-006	  2.36156E-004	  4.00853E-004	  6.37818E-005	
  2.86720E+000	  2.13686E-004	  3.83402E-004	 -9.65866E-005	 -2.88863E-004	  6.38900E-004	 -1.39134E-003	  9.19270E-004	  8.52620E-004	  3.76811E-004	  1.10992E-003	 -3.67280E-004	
  3.07200E+000	  1.95002E-004	 -9.43065E-004	  2.99114E-004	 -8.77448E-005	  2.90201E-004	  4.04224E-004	  5.25710E-005	  2.94461E-004	  5.34297E-004	 -2.99592E-004	  1.40555E-003	
  3.27680E+000	  4.69176E-005	 -3.11539E-004	  2.30882E-004	  1.70706E-004	 -4.51192E-004	  6.22483E-005	  1.29345E-005	  5.73441E-004	 -3.99454E-004	  3.43587E-004	  2.37562E-004	
  3.68640E+000	 -9.34178E-005	 -1.03192E-004	 -1.73756E-005	 -3.94807E-004	 -4.99950E-004	 -3.54612E-005	  5.21576E-004	 -2.66792E-004	 -5.89767E-004	  7.91811E-004	 -3.40221E-004	
  4.09600E+000	  8.59229E-005	 -2.37962E-004	 -6.16538E-004	  1.82793E-004	 -1.26249E-004	  8.53748E-005	  7.06417E-004	  8.02448E-004	 -5.79566E-004	  4.38432E-004	  2.04079E-004	
  4.50560E+000	  2.10410E-004	 -7.78025E-005	  9.08845E-005	  9.55925E-004	 -6.20679E-005	  4.23884E-004	 -9.30768E-005	  2.16585E-004	  4.18073E-004	 -3.42730E-005	  2.65970E-004	
  4.91520E+000	 -3.71358E-005	  1.95985E-004	 -1.47346E-004	  5.43091E-005	 -4.35263E-004	 -2.59204E-004	  2.58436E-004	 -3.65431E-004	  5.12486E-004	  6.73528E-006	 -1.92065E-004	
  5.32480E+000	 -1.57153E-004	 -3.29443E-004	 -6.48972E-004	  4.45413E-004	  2.79521E-004	 -5.68086E-004	 -2.95146E-004	 -4.42097E-004	  2.28935E-004	 -3.08548E-004	  6.68922E-005	
  5.73440E+000	 -4.99695E-005	 -3.61809E-004	 -8.68682E-004	  6.57464E-004	  7.68520E-005	  4.52219E-005	  5.13824E-004	 -3.28726E-004	 -4.59444E-006	  2.71370E-004	 -5.00616E-004	
  6.14400E+000	  3.07632E-005	  3.85084E-004	 -5.08490E-004	 -1.41586E-004	 -9.06441E-005	 -3.77926E-004	  1.24753E-004	 -1.75644E-006	  6.25905E-005	  7.52062E-004	  1.03546E-004	
  6.55360E+000	 -1.03320E-005	 -2.47602E-004	 -6.15987E-004	  1.59885E-005	  8.28902E-005	 -4.61537E-004	  2.46312E-004	  3.86786E-004	 -7.94452E-005	  6.18498E-004	 -4.92234E-005	
  7.37280E+000	  2.13018E-004	 -2.53837E-004	  1.07392E-004	  4.58856E-004	  2.53234E-004	 -7.50674E-005	  5.83505E-004	  2.46595E-004	  4.33433E-004	 -4.15397E-005	  4.17605E-004	
  8.19200E+000	 -2.14166E-004	 -1.11483E-003	 -2.00005E-005	  1.22131E-005	  1.91249E-004	 -3.09248E-004	  1.35929E-004	  1.10488E-004	 -5.62328E-005	 -6.64693E-004	 -4.26530E-004	
  9.01120E+000	  3.01789E-005	 -2.33812E-004	  2.87839E-004	  4.05519E-004	  5.21067E-004	 -6.54646E-005	 -8.37269E-005	  3.40785E-004	 -1.27991E-004	 -5.14179E-004	 -2.28247E-004	
  9.83040E+000	 -4.04949E-005	 -1.10514E-005	  1.14793E-004	  5.81755E-004	  1.77262E-004	 -8.13533E-004	  3.15903E-004	  4.48157E-004	 -9.21806E-004	 -2.21857E-004	 -7.45731E-005	
  1.06496E+001	 -9.21028E-005	  3.42704E-004	 -1.91191E-004	 -4.72058E-004	  2.71448E-004	  2.70683E-005	 -3.61666E-005	  1.27425E-004	 -4.44155E-004	 -6.72365E-004	  1.26262E-004	
  1.14688E+001	  1.58495E-004	  5.43193E-005	 -1.25538E-004	  4.14709E-004	 -1.07810E-004	 -1.27364E-004	  9.49077E-005	  3.06729E-004	  7.84514E-004	  4.23643E-004	 -1.33165E-004	
  1.22880E+001	  1.61689E-004	 -5.64655E-006	  1.31272E-004	  8.71822E-004	  6.69071E-004	  3.38901E-004	  4.32907E-005	  3.22122E-005	 -6.93367E-004	  2.67427E-004	 -3.80953E-005	
  1.31072E+001	 -1.56023E-006	 -9.22954E-005	 -2.41316E-004	  3.73205E-004	  1.45029E-004	 -2.64522E-005	  3.58571E-004	  2.17045E-004	 -1.96233E-004	 -2.09548E-004	 -3.43609E-004	
  1.47456E+001	 -4.46382E-005	 -9.34713E-005	 -8.24885E-005	 -1.61962E-004	  6.22563E-005	 -2.79876E-004	 -6.58939E-005	 -1.72115E-005	  2.80555E-004	  8.84686E-005	 -1.76759E-004	
  1.63840E+001	  7.55541E-005	  1.22018E-004	 -2.03798E-004	  1.66574E-004	 -1.32396E-004	  5.11911E-004	  4.05425E-005	 -4.99570E-004	  5.05345E-004	 -2.59481E-004	  5.04396E-004	
  1.80224E+001	 -1.03486E-004	 -7.59882E-004	 -1.31312E-005	 -3.62169E-004	 -5.36965E-004	 -3.77441E-005	  2.24401E-004	 -9.08051E-005	  3.70459E-004	 -2.12749E-004	  3.83722E-004	
  1.96608E+001	  6.79808E-005	 -1.51213E-004	  2.29752E-004	  2.55882E-004	 -3.87605E-005	 -1.31248E-004	  2.96782E-004	  4.41904E-004	  2.70732E-004	 -3.70197E-004	 -1.23825E-004	
  2.12992E+001	 -1.22777E-004	 -3.58833E-005	  1.77941E-004	  1.46448E-004	 -3.99130E-004	  2.50215E-004	 -8.93890E-005	  1.54226E-005	 -3.41259E-004	 -7.39383E-004	 -2.12756E-004	
  2.29376E+001	  9.52558E-005	  2.31933E-004	  5.25669E-004	  2.31676E-005	 -4.33554E-004	 -1.10191E-005	  3.74745E-004	  7.88226E-005	 -2.49971E-004	  2.49684E-004	  1.63081E-004	
  2.45760E+001	 -5.69343E-005	 -1.59809E-004	  2.23301E-004	  1.45784E-004	 -1.35699E-004	  1.68558E-004	 -3.93520E-004	  2.22023E-004	 -3.40975E-004	 -6.36663E-005	 -2.35339E-004	
  2.62144E+001	 -2.83289E-005	  2.39161E-004	 -7.85224E-005	 -2.54902E-004	 -4.50154E-004	  2.53330E-004	 -1.49466E-004	  2.07868E-004	 -2.73797E-004	  6.11812E-005	  1.62014E-004	
  2.94912E+001	  1.49842E-004	  4.91581E-004	  3.01227E-005	 -1.27421E-004	 -2.11765E-004	  4.43797E-004	  2.17056E-005	 -1.79141E-005	  1.62642E-004	  2.88699E-004	  4.16971E-004	
  3.27680E+001	  3.64737E-005	  3.29948E-004	 -1.25881E-004	 -2.51032E-004	  5.97279E-005	  1.94966E-004	 -2.82841E-004	  1.83478E-004	  2.55778E-004	  1.53029E-004	 -1.52436E-004	
  3.60448E+001	 -7.14958E-005	 -1.00368E-004	 -4.63192E-005	 -3.61312E-005	  5.29975E-005	 -4.69774E-005	  2.45399E-004	 -2.60844E-004	 -1.26122E-004	 -3.46976E-004	 -4.96164E-005	
  3.93216E+001	  5.08230E-006	 -3.40901E-005	  2.58978E-004	  1.58167E-004	  1.72631E-004	 -1.83294E-006	 -8.44109E-005	  2.71137E-004	 -4.59829E-004	 -1.23271E-004	 -1.06656E-004	
  4.25984E+001	 -3.95894E-005	  9.45203E-006	  1.30226E-004	 -1.94168E-004	 -3.30666E-004	 -2.09502E-004	  5.46508E-005	  5.26837E-004	  9.62246E-005	 -3.18441E-004	 -1.60507E-004	
  4.58752E+001	  1.00776E-004	  3.77914E-004	  1.24858E-004	  1.13922E-004	  4.28768E-005	  4.21665E-005	  1.89336E-004	  3.21532E-005	  3.33599E-005	  1.61982E-004	 -1.10812E-004	
  4.91520E+001	  4.52669E-005	 -4.32987E-005	  2.69582E-005	  7.65972E-005	 -4.94800E-005	  1.29072E-004	  2.09818E-004	 -3.62976E-004	  1.21194E-004	  2.21525E-004	  1.23260E-004	
  5.24288E+001	  3.62402E-005	  5.73571E-005	  1.94626E-005	  2.03078E-004	  3.06433E-004	 -1.10715E-004	 -2.06328E-004	 -1.39971E-004	  2.88837E-004	 -3.21502E-007	 -5.54299E-005	
  5.89824E+001	  1.18215E-004	  9.16789E-005	  9.79525E-005	  1.41523E-004	 -1.12970E-004	  5.67037E-005	  3.68059E-004	  3.31454E-004	  3.28972E-005	  1.48229E-004	  2.66233E-005	
  6.55360E+001	 -6.11751E-005	  1.41181E-004	 -2.75732E-005	 -2.04499E-004	 -1.08487E-004	  1.28991E-005	 -8.91175E-005	  1.15786E-004	 -7.08046E-005	 -1.12923E-004	 -2.68211E-004	
  7.20896E+001	  8.52639E-005	  1.48871E-004	  1.37154E-004	 -1.48835E-004	  2.00050E-004	  1.57591E-004	  1.80876E-004	 -1.26891E-005	 -3.57097E-005	 -9.13912E-005	  3.16721E-004	
  7.86432E+001	  1.62640E-005	  1.20266E-004	 -1.53191E-004	  2.24289E-005	  1.05763E-005	  1.35120E-004	  3.89066E-005	  6.25574E-005	 -4.87649E-005	  1.21625E-006	 -2.64753E-005	
  8.51968E+001	  5.58792E-005	  1.27854E-004	  1.44741E-004	  1.03891E-004	 -9.46107E-005	  8.87550E-006	  1.77552E-004	 -2.08194E-004	  2.41760E-004	  1.07600E-004	 -5.06759E-005	
  9.17504E+001	 -1.29121E-005	  1.50111E-004	 -6.94495E-005	  7.02219E-006	  1.91664E-004	 -9.35770E-005	 -2.81282E-004	 -1.02175E-004	  2.55415E-004	 -1.37509E-004	 -4.93404E-005	
  9.83040E+001	 -2.85435E-005	  3.32209E-004	 -7.11999E-005	 -4.62177E-005	 -1.35253E-004	  2.66274E-005	 -1.79112E-004	 -1.54850E-004	 -5.49451E-005	 -5.43685E-006	  2.74366E-006	
  1.04858E+002	 -3.48043E-005	  3.97351E-005	 -5.20085E-005	 -8.32913E-005	  5.10949E-005	 -5.56900E-005	 -1.54070E-004	  7.37332E-005	  3.60395E-005	  1.64863E-005	 -2.20072E-004	
  1.17965E+002	  3.34869E-005	  4.41068E-005	  1.11891E-004	  6.84135E-005	 -1.47237E-004	 -9.71849E-005	 -2.64169E-005	  1.02074E-004	  4.15521E-005	  1.21151E-004	  1.16519E-004	
  1.31072E+002	 -5.61937E-005	  6.59425E-005	 -2.34283E-004	 -1.98134E-005	 -2.76605E-004	 -2.60772E-005	 -2.44539E-004	 -6.46276E-005	  2.52417E-004	 -5.44359E-006	 -8.90739E-006	
  1.44179E+002	  8.09225E-006	  1.26900E-004	 -1.96769E-004	  1.26249E-004	  8.66693E-005	 -9.37374E-005	 -1.09759E-004	 -9.58097E-006	  1.36769E-004	  7.08863E-005	 -5.67052E-005	
  1.57286E+002	  1.14559E-006	 -1.15722E-004	 -5.57328E-005	 -3.25893E-005	  7.29559E-005	  7.32149E-006	 -4.99503E-005	  1.10030E-004	  1.11995E-004	 -2.63730E-005	 -1.04793E-005	
  1.70394E+002	 -8.54150E-006	  1.13585E-004	  4.79162E-006	 -1.05437E-004	  1.59764E-004	 -1.23324E-004	 -1.40507E-004	 -2.87366E-005	 -1.61297E-004	  5.28892E-005	  1.42857E-004	
  1.83501E+002	 -1.00785E-005	  3.16473E-005	 -2.29664E-005	 -1.06398E-004	  1.50934E-004	 -1.41110E-004	  1.51806E-004	  7.90038E-005	 -2.53727E-005	 -1.29896E-004	 -8.84335E-005	
  1.96608E+002	  1.28280E-005	  1.55692E-004	  7.11999E-005	  1.32783E-005	 -1.06253E-004	 -5.27746E-005	 -1.48696E-004	  1.24516E-004	  9.90694E-005	 -5.53669E-005	  2.76160E-005	
  2.09715E+002	 -5.79699E-006	 -3.60193E-005	  9.27141E-005	  4.49414E-005	 -1.50157E-004	 -6.81531E-005	 -2.44765E-005	 -6.39036E-005	  2.03090E-005	  1.06695E-004	  2.00796E-005	
  2.35930E+002	  1.43906E-005	  2.96551E-005	 -4.44117E-005	 -6.95604E-005	  3.93797E-005	  4.64366E-005	  8.14006E-005	  1.94558E-004	 -9.56967E-005	  2.60003E-005	 -6.38550E-005	
  2.62144E+002	  2.67349E-005	  2.31013E-005	  4.60871E-005	  1.39383E-004	  8.86774E-005	  3.82367E-005	  1.48939E-005	 -8.82139E-005	 -5.20304E-005	  9.02329E-007	  5.63118E-005	
  2.88358E+002	 -3.10983E-006	  2.09880E-005	 -1.35434E-004	 -2.05471E-005	 -2.12887E-005	  4.62763E-005	  6.64951E-005	 -1.07611E-004	 -7.06979E-005	  5.89705E-005	  1.31751E-004	
  3.14573E+002	  5.80158E-005	  2.92950E-005	  1.02060E-004	  1.20732E-005	  1.28585E-004	 -7.48071E-005	  2.04024E-004	 -5.98986E-005	  4.29273E-005	  1.46605E-004	  4.92932E-005	
  3.40787E+002	  5.49112E-005	  2.23718E-005	  2.73687E-005	  1.56240E-005	  7.55683E-005	  1.95413E-005	  5.13077E-005	  4.98593E-006	  1.93238E-004	  1.36654E-004	  2.45223E-006	
  3.67002E+002	 -6.01171E-006	 -1.38201E-004	  3.31487E-005	  8.62589E-005	 -3.25754E-005	 -1.10249E-004	 -6.83838E-005	 -3.21687E-005	  7.17705E-005	 -1.56447E-005	  1.45927E-004	
  3.93216E+002	  1.71453E-005	  1.18545E-004	  3.79364E-006	 -1.18188E-004	 -1.84920E-005	  8.28252E-005	 -6.32745E-005	  7.00018E-006	  1.09754E-004	  1.26480E-004	 -7.69907E-005	
  4.19430E+002	  3.59489E-007	  3.00955E-005	  2.92700E-005	 -8.71836E-005	  1.27617E-005	  2.54471E-005	 -7.87931E-005	 -3.67962E-005	  3.71965E-005	  5.80756E-005	  1.35214E-005	
  4.71859E+002	  2.32440E-005	  5.66074E-005	  5.84893E-005	 -3.66921E-005	 -3.30624E-005	  6.19776E-005	  2.45609E-005	  9.62956E-005	  7.88096E-005	  1.33846E-005	 -8.79307E-005	
  5.24288E+002	  3.02004E-005	  6.38509E-005	  3.34513E-005	 -1.12218E-005	 -6.47090E-005	 -7.84274E-006	  5.15292E-005	  4.21153E-005	  8.80712E-005	  1.77354E-005	  8.90243E-005	
  5.76717E+002	  3.03952E-006	  5.81212E-005	 -1.67966E-005	 -5.63280E-005	  3.14288E-005	 -3.18606E-005	  6.26196E-005	 -3.90465E-005	  3.39014E-005	  2.59398E-005	 -3.75840E-005	
  6.29146E+002	 -1.56666E-005	  6.19125E-006	  4.57091E-005	 -1.55976E-005	  3.70651E-005	 -8.84807E-005	 -3.54099E-005	 -4.49519E-005	  6.69273E-005	 -7.93914E-005	 -4.87273E-005	
  6.81574E+002	 -1.07072E-005	  9.50381E-006	 -1.03487E-004	 -2.19948E-005	 -2.97398E-005	  2.57019E-005	 -3.22406E-005	 -2.07347E-006	  2.38521E-005	  2.09753E-005	  2.43098E-006	
  7.34003E+002	 -2.40549E-005	  8.88576E-005	 -1.80335E-005	 -7.73278E-005	 -3.23075E-005	  4.54315E-006	 -1.27121E-004	  2.51122E-005	 -6.60364E-005	  6.69419E-005	 -1.05178E-004	
  7.86432E+002	  5.33351E-005	  4.64699E-005	  3.39623E-005	  1.34035E-005	 -2.19906E-005	  1.07763E-004	  7.77688E-005	  1.04678E-004	  5.51415E-005	  1.03601E-004	  1.25528E-005	
  8.38861E+002	  2.60835E-005	  4.42699E-005	 -4.54948E-005	  3.12782E-005	  2.58279E-005	  9.39543E-005	  5.41569E-005	 -1.20700E-005	  7.50881E-006	  5.66197E-005	  4.78434E-006	
  9.43718E+002	  1.75888E-006	  3.33945E-005	 -4.29289E-005	  3.64356E-005	 -6.74918E-005	 -6.98741E-007	 -2.01515E-005	 -2.27750E-006	  3.73544E-005	 -1.28405E-005	  5.67933E-005	
  1.04858E+003	  6.11786E-006	  2.56668E-005	 -3.59483E-005	 -8.76740E-006	  2.91770E-005	 -1.00147E-005	  1.21130E-005	 -8.87398E-006	  5.85366E-005	  7.03416E-006	 -7.74471E-006	
  1.15343E+003	  1.13862E-005	  2.41503E-005	  1.16147E-004	 -1.62324E-005	 -7.78870E-005	  1.93629E-005	  2.23642E-005	 -6.59081E-005	  8.57165E-005	  1.26865E-005	 -6.53826E-006	
  1.25829E+003	  2.95527E-005	  6.37473E-005	  2.44496E-005	  8.87201E-005	 -3.97448E-005	 -1.61733E-007	  5.00626E-006	  5.99612E-005	  2.91360E-005	  7.77082E-006	  5.66418E-005	
  1.36315E+003	  1.47609E-005	  7.74137E-005	 -2.82063E-005	 -2.54718E-005	  6.73005E-005	  8.27840E-005	 -4.10550E-005	 -1.57009E-005	  5.86863E-005	  4.46262E-005	 -7.27679E-005	
  1.46801E+003	 -5.83054E-006	  7.45372E-005	 -2.09276E-005	 -2.02176E-005	 -2.65358E-005	 -5.45970E-005	 -1.94921E-007	 -4.30822E-006	 -1.29626E-005	 -3.05394E-005	  3.74404E-005	
  1.57286E+003	  1.68772E-005	  5.78303E-005	  4.75179E-005	  2.67327E-005	 -3.10774E-005	  3.45626E-005	  6.85329E-005	  1.74128E-005	  4.64978E-006	  3.20285E-005	 -8.94182E-005	
  1.67772E+003	  1.52418E-005	  2.28968E-005	  1.41983E-005	  1.98004E-005	  2.01287E-005	 -1.71688E-006	 -9.63010E-006	  1.03426E-005	  9.90993E-005	  3.30816E-006	 -2.60096E-005	
  1.88744E+003	  2.21964E-005	  9.61670E-006	  1.83939E-005	  5.37298E-005	  9.78375E-006	  3.61224E-006	 -6.34098E-006	  7.49981E-005	  1.95188E-005	  5.06087E-005	 -1.19574E-005	
  2.09715E+003	  1.46718E-006	  7.51962E-006	 -6.27192E-005	 -1.88750E-005	 -5.38535E-006	  2.76019E-005	 -1.17356E-005	  2.45268E-005	  3.67117E-005	 -4.75971E-006	  2.17867E-005	
  2.30687E+003	  2.41153E-006	  3.10036E-005	  1.73875E-005	 -1.19727E-005	 -2.06385E-005	  9.61425E-007	 -8.57495E-006	 -2.21720E-006	  1.33883E-005	  4.05713E-005	 -3.57935E-005	
  2.51658E+003	 -7.79367E-006	 -1.74887E-005	 -3.73072E-005	  3.11262E-005	 -2.07331E-005	 -3.71025E-005	 -2.03201E-005	 -4.47951E-005	  6.37189E-005	  1.10057E-005	 -6.04071E-006	
  2.72630E+003	  9.13644E-006	  5.81699E-005	 -3.58906E-005	 -7.39444E-006	  5.50282E-005	 -1.85625E-005	 -7.33488E-006	 -1.12646E-005	  7.21425E-005	  9.27409E-006	 -2.28033E-005	
  2.93601E+003	  2.05360E-005	  6.89472E-005	 -2.37900E-005	  3.10618E-005	  6.96012E-006	  5.94744E-005	  1.35163E-005	 -5.34901E-005	  6.43833E-005	 -1.74201E-005	  5.57171E-005	
  3.14573E+003	  1.24498E-007	  1.81735E-005	  2.05997E-005	 -6.03824E-005	  3.18039E-005	  2.07689E-005	 -3.64256E-005	 -2.29147E-005	  1.33283E-005	  5.22915E-007	  1.57704E-005	
  3.35544E+003	  6.09149E-006	 -2.47321E-005	 -1.83034E-005	  1.72964E-005	  5.78985E-005	 -2.40331E-005	  1.50792E-005	  1.97180E-005	  2.09629E-005	 -8.81787E-006	  5.84638E-006	
  3.77487E+003	  1.07447E-005	  5.28230E-006	  3.90704E-005	 -2.56320E-005	 -3.19513E-005	 -7.07324E-006	  2.76568E-005	  2.43134E-005	  6.51478E-005	  1.70074E-005	 -6.37413E-006	
  4.19430E+003	  2.29704E-006	  1.89910E-006	  4.05193E-005	 -1.72730E-005	 -1.09360E-005	 -3.81472E-006	 -2.16499E-005	  4.29012E-006	  2.25349E-005	  5.78263E-006	  1.61798E-006	
  4.61373E+003	 -3.28071E-006	  2.56573E-006	 -3.06960E-005	  4.11680E-006	 -1.56191E-005	 -1.53264E-005	  3.01170E-005	  1.26028E-006	 -1.06506E-005	 -5.54060E-006	  6.96572E-006	
  5.03317E+003	  1.65925E-006	 -2.46523E-007	 -1.31103E-005	  1.97620E-005	 -1.24894E-005	 -2.58050E-005	 -1.94049E-005	 -1.91498E-005	  3.60109E-005	  5.61251E-005	 -5.09969E-006	
  5.45260E+003	  5.40456E-006	  1.22170E-005	  4.73533E-005	  2.53306E-006	  1.25030E-005	 -1.02239E-005	 -3.20386E-005	  1.73964E-005	  3.94358E-005	 -1.34208E-005	 -2.17097E-005	
  5.87203E+003	  8.47727E-007	  1.46531E-005	 -2.50902E-005	 -8.56253E-006	  5.91205E-006	  2.43979E-005	 -3.79290E-005	  1.62067E-005	  2.34766E-005	  5.66090E-006	 -1.02483E-005	
  6.29146E+003	 -2.06073E-005	 -2.23560E-006	 -5.93923E-005	 -3.80908E-005	  2.05607E-005	 -6.02808E-005	 -1.36796E-005	 -8.43001E-006	 -3.01388E-005	  3.60345E-006	 -1.79888E-005	
  6.71089E+003	 -1.18035E-005	 -1.67447E-006	 -4.64991E-006	  1.55548E-005	 -9.96163E-006	 -1.47882E-005	 -2.19234E-005	 -4.08706E-005	 -3.34391E-005	  6.03377E-006	 -1.23167E-005	
  7.54975E+003	 -9.28896E-006	 -1.01895E-005	 -1.41895E-006	 -1.71115E-005	  1.48694E-005	 -3.15811E-005	 -6.72081E-006	 -3.02773E-005	 -2.03837E-005	 -2.45220E-005	  3.44460E-005	
  8.38861E+003	 -1.05552E-005	  3.84488E-005	 -4.03629E-005	  1.17733E-006	 -5.24002E-005	 -1.65719E-005	  2.25385E-005	 -3.97998E-005	 -2.71490E-005	 -1.00146E-005	  1.85816E-005	
  9.22747E+003	  8.53910E-006	  5.46464E-005	  1.67714E-005	 -4.44422E-005	  2.56925E-005	 -1.62116E-005	 -1.89143E-005	  5.41813E-005	 -1.63500E-005	  6.82283E-005	 -3.82108E-005	
  1.00663E+004	 -4.65537E-006	 -1.09651E-007	 -1.96201E-005	 -3.49590E-005	 -3.16659E-005	  8.05357E-007	  4.46219E-005	  1.60455E-005	 -1.57003E-005	 -8.85301E-006	  2.88167E-006	
  1.09052E+004	  9.88285E-006	  2.88443E-005	  2.31551E-005	 -1.86535E-005	  3.69733E-005	 -4.00310E-005	 -2.01753E-006	  8.16620E-006	  4.60840E-006	  4.27345E-005	  1.50488E-005	
  1.17441E+004	  9.02368E-007	  2.11413E-006	  1.59261E-005	 -1.64216E-005	 -2.83248E-006	  1.97775E-005	  1.36145E-006	  1.31654E-005	 -1.29732E-005	 -3.38957E-005	  2.28021E-005	
  1.25829E+004	  3.68059E-007	  1.99040E-005	 -1.48417E-005	 -3.97329E-007	  8.51845E-006	 -1.87044E-005	 -2.35077E-005	 -1.41150E-005	  3.65661E-005	 -1.86865E-005	  2.89447E-005	

"Count Rate"
       0.11719	      96.52290	       0.00000	       0.00000	       0.00000
       0.23438	      95.41510	       0.00000	       0.00000	       0.00000
       0.35156	      95.98604	       0.00000	       0.00000	       0.00000
       0.46875	      96.46324	       0.00000	       0.00000	       0.00000
       0.58594	      89.24554	       0.00000	       0.00000	       0.00000
       0.70313	      96.49733	       0.00000	       0.00000	       0.00000
       0.82031	      93.57446	       0.00000	       0.00000	       0.00000
       0.93750	      93.87271	       0.00000	       0.00000	       0.00000
       1.05469	      97.74147	       0.00000	       0.00000	       0.00000
       1.17188	      99.33498	       0.00000	       0.00000	       0.00000
       1.28906	      99.03674	       0.00000	       0.00000	       0.00000
       1.40625	      95.09129	       0.00000	       0.00000	       0.00000
       1.52344	      97.12792	       0.00000	       0.00000	       0.00000
       1.64063	      94.01758	       0.00000	       0.00000	       0.00000
       1.75781	      94.17948	       0.00000	       0.00000	       0.00000
       1.87500	      96.09682	       0.00000	       0.00000	       0.00000
       1.99219	      97.90337	       0.00000	       0.00000	       0.00000
       2.10938	      95.96899	       0.00000	       0.00000	       0.00000
       2.22656	      98.91743	       0.00000	       0.00000	       0.00000
       2.34375	      95.70483	       0.00000	       0.00000	       0.00000
       2.46094	      93.72784	       0.00000	       0.00000	       0.00000
       2.57813	      94.23914	       0.00000	       0.00000	       0.00000
       2.69531	      95.32137	       0.00000	       0.00000	       0.00000
       2.81250	      93.02056	       0.00000	       0.00000	       0.00000
       2.92969	      98.26980	       0.00000	       0.00000	       0.00000
       3.04688	      97.50287	       0.00000	       0.00000	       0.00000
       3.16406	      98.51692	       0.00000	       0.00000	       0.00000
       3.28125	      98.46579	       0.00000	       0.00000	       0.00000
       3.39844	      95.53440	       0.00000	       0.00000	       0.00000
       3.51563	      98.09937	       0.00000	       0.00000	       0.00000
       3.63281	      99.78662	       0.00000	       0.00000	       0.00000
       3.75000	      95.44919	       0.00000	       0.00000	       0.00000
       3.86719	      95.46623	       0.00000	       0.00000	       0.00000
       3.98438	      94.52035	       0.00000	       0.00000	       0.00000
       4.10156	      96.71037	       0.00000	       0.00000	       0.00000
       4.21875	      96.93192	       0.00000	       0.00000	       0.00000
       4.33594	      94.22209	       0.00000	       0.00000	       0.00000
       4.45313	      96.88932	       0.00000	       0.00000	       0.00000
       4.57031	      95.16798	       0.00000	       0.00000	       0.00000
       4.68750	      95.71336	       0.00000	       0.00000	       0.00000
       4.80469	      98.03120	       0.00000	       0.00000	       0.00000
       4.92188	      96.12238	       0.00000	       0.00000	       0.00000
       5.03906	      95.20206	       0.00000	       0.00000	       0.00000
       5.15625	      95.81561	       0.00000	       0.00000	       0.00000
       5.27344	      97.93746	       0.00000	       0.00000	       0.00000
       5.39063	      93.77898	       0.00000	       0.00000	       0.00000
       5.50781	      92.79048	       0.00000	       0.00000	       0.00000
       5.62500	      97.45174	       0.00000	       0.00000	       0.00000
       5.74219	      91.61452	       0.00000	       0.00000	       0.00000
       5.85938	      96.85523	       0.00000	       0.00000	       0.00000
       5.97656	      95.35545	       0.00000	       0.00000	       0.00000
       6.09375	      92.50927	       0.00000	       0.00000	       0.00000
       6.21094	      98.26980	       0.00000	       0.00000	       0.00000
       6.32813	      97.34948	       0.00000	       0.00000	       0.00000
       6.44531	      94.23061	       0.00000	       0.00000	       0.00000
       6.56250	      92.56040	       0.00000	       0.00000	       0.00000
       6.67969	      93.39551	       0.00000	       0.00000	       0.00000
       6.79688	      94.15392	       0.00000	       0.00000	       0.00000
       6.91406	      91.67416	       0.00000	       0.00000	       0.00000
       7.03125	      92.63709	       0.00000	       0.00000	       0.00000
       7.14844	      96.04569	       0.00000	       0.00000	       0.00000
       7.26563	      93.67672	       0.00000	       0.00000	       0.00000
       7.38281	      93.19099	       0.00000	       0.00000	       0.00000
       7.50000	      94.50330	       0.00000	       0.00000	       0.00000
       7.61719	      96.14795	       0.00000	       0.00000	       0.00000
       7.73438	      91.29922	       0.00000	       0.00000	       0.00000
       7.85156	      95.41510	       0.00000	       0.00000	       0.00000
       7.96875	      92.36441	       0.00000	       0.00000	       0.00000
       8.08594	      98.24423	       0.00000	       0.00000	       0.00000
       8.20313	      98.35501	       0.00000	       0.00000	       0.00000
       8.32031	      96.79558	       0.00000	       0.00000	       0.00000
       8.43750	      96.08829	       0.00000	       0.00000	       0.00000
       8.55469	      98.86630	       0.00000	       0.00000	       0.00000
       8.67188	      93.04613	       0.00000	       0.00000	       0.00000
       8.78906	      96.35246	       0.00000	       0.00000	       0.00000
       8.90625	      96.51437	       0.00000	       0.00000	       0.00000
       9.02344	      93.31030	       0.00000	       0.00000	       0.00000
       9.14063	      96.26725	       0.00000	       0.00000	       0.00000
       9.25781	      94.99755	       0.00000	       0.00000	       0.00000
       9.37500	      93.77045	       0.00000	       0.00000	       0.00000
       9.49219	      93.08022	       0.00000	       0.00000	       0.00000
       9.60938	      91.79346	       0.00000	       0.00000	       0.00000
       9.72656	      96.95749	       0.00000	       0.00000	       0.00000
       9.84375	      97.03418	       0.00000	       0.00000	       0.00000
       9.96094	      96.56550	       0.00000	       0.00000	       0.00000
      10.07813	      89.04103	       0.00000	       0.00000	       0.00000
      10.19531	      93.94088	       0.00000	       0.00000	       0.00000
      10.31250	      93.21655	       0.00000	       0.00000	       0.00000
      10.42969	      97.80112	       0.00000	       0.00000	       0.00000
      10.54688	      94.83564	       0.00000	       0.00000	       0.00000
      10.66406	      91.94685	       0.00000	       0.00000	       0.00000
      10.78125	      92.82457	       0.00000	       0.00000	       0.00000
      10.89844	      93.28473	       0.00000	       0.00000	       0.00000
      11.01563	      93.89828	       0.00000	       0.00000	       0.00000
      11.13281	     100.40017	       0.00000	       0.00000	       0.00000
      11.25000	      98.07381	       0.00000	       0.00000	       0.00000
      11.36719	      92.44110	       0.00000	       0.00000	       0.00000
      11.48438	      97.34096	       0.00000	       0.00000	       0.00000
      11.60156	      95.45771	       0.00000	       0.00000	       0.00000
      11.71875	      93.57446	       0.00000	       0.00000	       0.00000
      11.83594	      95.21059	       0.00000	       0.00000	       0.00000
      11.95313	      95.36397	       0.00000	       0.00000	       0.00000
      12.07031	      97.49435	       0.00000	       0.00000	       0.00000
      12.18750	      93.08874	       0.00000	       0.00000	       0.00000
      12.30469	      97.59660	       0.00000	       0.00000	       0.00000
      12.42188	      97.48582	       0.00000	       0.00000	       0.00000
      12.53906	      95.91787	       0.00000	       0.00000	       0.00000
      12.65625	      90.12325	       0.00000	       0.00000	       0.00000
      12.77344	      92.91830	       0.00000	       0.00000	       0.00000
      12.89063	      97.85225	       0.00000	       0.00000	       0.00000
      13.00781	      93.68524	       0.00000	       0.00000	       0.00000
      13.12500	      89.06659	       0.00000	       0.00000	       0.00000
      13.24219	      96.14795	       0.00000	       0.00000	       0.00000
      13.35938	      94.57999	       0.00000	       0.00000	       0.00000
      13.47656	      98.30389	       0.00000	       0.00000	       0.00000
      13.59375	      93.77898	       0.00000	       0.00000	       0.00000
      13.71094	      95.14241	       0.00000	       0.00000	       0.00000
      13.82813	      94.83564	       0.00000	       0.00000	       0.00000
      13.94531	      94.04314	       0.00000	       0.00000	       0.00000
      14.06250	      94.54591	       0.00000	       0.00000	       0.00000
      14.17969	      97.36652	       0.00000	       0.00000	       0.00000
      14.29688	      97.99711	       0.00000	       0.00000	       0.00000
      14.41406	      93.34438	       0.00000	       0.00000	       0.00000
      14.53125	      95.13389	       0.00000	       0.00000	       0.00000
      14.64844	      97.00010	       0.00000	       0.00000	       0.00000
      14.76563	      93.66820	       0.00000	       0.00000	       0.00000
      14.88281	      93.50629	       0.00000	       0.00000	       0.00000
      15.00000	      95.88378	       0.00000	       0.00000	       0.00000
      15.11719	      93.85567	       0.00000	       0.00000	       0.00000
      15.23438	      98.03120	       0.00000	       0.00000	       0.00000
      15.35156	      95.96899	       0.00000	       0.00000	       0.00000
      15.46875	      94.41808	       0.00000	       0.00000	       0.00000
      15.58594	      94.10279	       0.00000	       0.00000	       0.00000
      15.70313	      95.38101	       0.00000	       0.00000	       0.00000
      15.82031	      94.86973	       0.00000	       0.00000	       0.00000
      15.93750	      94.85268	       0.00000	       0.00000	       0.00000
      16.05469	      95.29580	       0.00000	       0.00000	       0.00000
      16.17188	      94.61408	       0.00000	       0.00000	       0.00000
      16.28906	      99.11343	       0.00000	       0.00000	       0.00000
      16.40625	      97.17905	       0.00000	       0.00000	       0.00000
      16.52344	      97.24722	       0.00000	       0.00000	       0.00000
      16.64063	      97.48582	       0.00000	       0.00000	       0.00000
      16.75781	      98.79813	       0.00000	       0.00000	       0.00000
      16.87500	      94.50330	       0.00000	       0.00000	       0.00000
      16.99219	      92.20250	       0.00000	       0.00000	       0.00000
      17.10938	      97.10236	       0.00000	       0.00000	       0.00000
      17.22656	      93.35290	       0.00000	       0.00000	       0.00000
      17.34375	      91.92981	       0.00000	       0.00000	       0.00000
      17.46094	      96.78706	       0.00000	       0.00000	       0.00000
      17.57813	      93.47220	       0.00000	       0.00000	       0.00000
      17.69531	     101.41423	       0.00000	       0.00000	       0.00000
      17.81250	      93.42960	       0.00000	       0.00000	       0.00000
      17.92969	      95.93491	       0.00000	       0.00000	       0.00000
      18.04688	      93.44664	       0.00000	       0.00000	       0.00000
      18.16406	      92.72231	       0.00000	       0.00000	       0.00000
      18.28125	      95.25319	       0.00000	       0.00000	       0.00000
      18.39844	      92.08320	       0.00000	       0.00000	       0.00000
      18.51563	      92.98647	       0.00000	       0.00000	       0.00000
      18.63281	      97.67329	       0.00000	       0.00000	       0.00000
      18.75000	      94.35844	       0.00000	       0.00000	       0.00000
      18.86719	      96.81262	       0.00000	       0.00000	       0.00000
      18.98438	      94.08575	       0.00000	       0.00000	       0.00000
      19.10156	      92.62857	       0.00000	       0.00000	       0.00000
      19.21875	      95.55145	       0.00000	       0.00000	       0.00000
      19.33594	      93.58298	       0.00000	       0.00000	       0.00000
      19.45313	      94.01758	       0.00000	       0.00000	       0.00000
      19.57031	      99.18159	       0.00000	       0.00000	       0.00000
      19.68750	      92.96091	       0.00000	       0.00000	       0.00000
      19.80469	      93.31882	       0.00000	       0.00000	       0.00000
      19.92188	      94.34139	       0.00000	       0.00000	       0.00000
      20.03906	      97.34948	       0.00000	       0.00000	       0.00000
      20.15625	      95.44919	       0.00000	       0.00000	       0.00000
      20.27344	      96.20760	       0.00000	       0.00000	       0.00000
      20.39063	      99.09638	       0.00000	       0.00000	       0.00000
      20.50781	      95.55145	       0.00000	       0.00000	       0.00000
      20.62500	      94.50330	       0.00000	       0.00000	       0.00000
      20.74219	      97.00862	       0.00000	       0.00000	       0.00000
      20.85938	      95.47475	       0.00000	       0.00000	       0.00000
      20.97656	      97.19609	       0.00000	       0.00000	       0.00000
      21.09375	      94.46922	       0.00000	       0.00000	       0.00000
      21.21094	      95.24467	       0.00000	       0.00000	       0.00000
      21.32813	      98.61918	       0.00000	       0.00000	       0.00000
      21.44531	      96.46324	       0.00000	       0.00000	       0.00000
      21.56250	      95.18502	       0.00000	       0.00000	       0.00000
      21.67969	      94.83564	       0.00000	       0.00000	       0.00000
      21.79688	      91.30775	       0.00000	       0.00000	       0.00000
      21.91406	      93.56594	       0.00000	       0.00000	       0.00000
      22.03125	      94.98903	       0.00000	       0.00000	       0.00000
      22.14844	      91.30775	       0.00000	       0.00000	       0.00000
      22.26563	      95.27023	       0.00000	       0.00000	       0.00000
      22.38281	      95.95196	       0.00000	       0.00000	       0.00000
      22.50000	      98.44023	       0.00000	       0.00000	       0.00000
      22.61719	      93.08874	       0.00000	       0.00000	       0.00000
      22.73438	      96.50585	       0.00000	       0.00000	       0.00000
      22.85156	      95.09981	       0.00000	       0.00000	       0.00000
      22.96875	      93.39551	       0.00000	       0.00000	       0.00000
      23.08594	      94.52035	       0.00000	       0.00000	       0.00000
      23.20313	      98.23571	       0.00000	       0.00000	       0.00000
      23.32031	      95.55997	       0.00000	       0.00000	       0.00000
      23.43750	      93.87271	       0.00000	       0.00000	       0.00000
      23.55469	      97.79259	       0.00000	       0.00000	       0.00000
      23.67188	      98.15902	       0.00000	       0.00000	       0.00000
      23.78906	      97.44321	       0.00000	       0.00000	       0.00000
      23.90625	      95.07424	       0.00000	       0.00000	       0.00000
      24.02344	      95.60257	       0.00000	       0.00000	       0.00000
      24.14063	      94.45217	       0.00000	       0.00000	       0.00000
      24.25781	      99.99114	       0.00000	       0.00000	       0.00000
      24.37500	      96.37803	       0.00000	       0.00000	       0.00000
      24.49219	      95.23615	       0.00000	       0.00000	       0.00000
      24.60938	      98.07381	       0.00000	       0.00000	       0.00000
      24.72656	      92.08320	       0.00000	       0.00000	       0.00000
      24.84375	      92.41553	       0.00000	       0.00000	       0.00000
      24.96094	      95.55145	       0.00000	       0.00000	       0.00000
      25.07813	      92.85014	       0.00000	       0.00000	       0.00000
      25.19531	      98.33797	       0.00000	       0.00000	       0.00000
      25.31250	      93.38699	       0.00000	       0.00000	       0.00000
      25.42969	      96.43768	       0.00000	       0.00000	       0.00000
      25.54688	      96.74445	       0.00000	       0.00000	       0.00000
      25.66406	      94.96346	       0.00000	       0.00000	       0.00000
      25.78125	     101.31197	       0.00000	       0.00000	       0.00000
      25.89844	      94.40105	       0.00000	       0.00000	       0.00000
      26.01563	      94.39252	       0.00000	       0.00000	       0.00000
      26.13281	      93.38699	       0.00000	       0.00000	       0.00000
      26.25000	      92.54336	       0.00000	       0.00000	       0.00000
      26.36719	      95.72187	       0.00000	       0.00000	       0.00000
      26.48438	      94.90381	       0.00000	       0.00000	       0.00000
      26.60156	      94.16245	       0.00000	       0.00000	       0.00000
      26.71875	      94.35844	       0.00000	       0.00000	       0.00000
      26.83594	      93.38699	       0.00000	       0.00000	       0.00000
      26.95313	      95.20206	       0.00000	       0.00000	       0.00000
      27.07031	      94.19653	       0.00000	       0.00000	       0.00000
      27.18750	      97.73295	       0.00000	       0.00000	       0.00000
      27.30469	      94.46069	       0.00000	       0.00000	       0.00000
      27.42188	      99.31794	       0.00000	       0.00000	       0.00000
      27.53906	      97.96303	       0.00000	       0.00000	       0.00000
      27.65625	      98.69588	       0.00000	       0.00000	       0.00000
      27.77344	      92.74787	       0.00000	       0.00000	       0.00000
      27.89063	      92.69675	       0.00000	       0.00000	       0.00000
      28.00781	      96.45472	       0.00000	       0.00000	       0.00000
      28.12500	      95.64518	       0.00000	       0.00000	       0.00000
      28.24219	      90.75385	       0.00000	       0.00000	       0.00000
      28.35938	      95.95196	       0.00000	       0.00000	       0.00000
      28.47656	      97.05975	       0.00000	       0.00000	       0.00000
      28.59375	      97.39208	       0.00000	       0.00000	       0.00000
      28.71094	      93.42107	       0.00000	       0.00000	       0.00000
      28.82813	      95.27876	       0.00000	       0.00000	       0.00000
      28.94531	      95.38953	       0.00000	       0.00000	       0.00000
      29.06250	      95.10833	       0.00000	       0.00000	       0.00000
      29.17969	      93.91532	       0.00000	       0.00000	       0.00000
      29.29688	      99.25829	       0.00000	       0.00000	       0.00000
      29.41406	      93.75341	       0.00000	       0.00000	       0.00000
      29.53125	      99.01117	       0.00000	       0.00000	       0.00000
      29.64844	      93.54890	       0.00000	       0.00000	       0.00000
      29.76563	      94.03462	       0.00000	       0.00000	       0.00000

Monitor Diode	      1.00
